,Timestamp,OriginalTimestamp,EEG.Counter,EEG.Interpolated,EEG.AF3,EEG.T7,EEG.Pz,EEG.T8,EEG.AF4,EEG.RawCq,EEG.Battery,EEG.BatteryPercent,MarkerIndex,MarkerType,MarkerValueInt,EEG.MarkerHardware,CQ.AF3,CQ.T7,CQ.Pz,CQ.T8,CQ.AF4,CQ.Overall,EQ.SampleRateQuality,EQ.OVERALL,EQ.AF3,EQ.T7,EQ.Pz,EQ.T8,EQ.AF4,MOT.CounterMems,MOT.InterpolatedMems,MOT.Q0,MOT.Q1,MOT.Q2,MOT.Q3,MOT.AccX,MOT.AccY,MOT.AccZ,MOT.MagX,MOT.MagY,MOT.MagZ,MC.Action,MC.ActionPower,MC.IsActive,PM.Engagement.IsActive,PM.Engagement.Scaled,PM.Engagement.Raw,PM.Engagement.Min,PM.Engagement.Max,PM.Excitement.IsActive,PM.Excitement.Scaled,PM.Excitement.Raw,PM.Excitement.Min,PM.Excitement.Max,PM.LongTermExcitement,PM.Stress.IsActive,PM.Stress.Scaled,PM.Stress.Raw,PM.Stress.Min,PM.Stress.Max,PM.Relaxation.IsActive,PM.Relaxation.Scaled,PM.Relaxation.Raw,PM.Relaxation.Min,PM.Relaxation.Max,PM.Interest.IsActive,PM.Interest.Scaled,PM.Interest.Raw,PM.Interest.Min,PM.Interest.Max,PM.Focus.IsActive,PM.Focus.Scaled,PM.Focus.Raw,PM.Focus.Min,PM.Focus.Max,FE.BlinkWink,FE.HorizontalEyesDirection,FE.UpperFaceAction,FE.UpperFaceActionPower,FE.LowerFaceAction,FE.LowerFaceActionPower,POW.AF3.Theta,POW.AF3.Alpha,POW.AF3.BetaL,POW.AF3.BetaH,POW.AF3.Gamma,POW.T7.Theta,POW.T7.Alpha,POW.T7.BetaL,POW.T7.BetaH,POW.T7.Gamma,POW.Pz.Theta,POW.Pz.Alpha,POW.Pz.BetaL,POW.Pz.BetaH,POW.Pz.Gamma,POW.T8.Theta,POW.T8.Alpha,POW.T8.BetaL,POW.T8.BetaH,POW.T8.Gamma,POW.AF4.Theta,POW.AF4.Alpha,POW.AF4.BetaL,POW.AF4.BetaH,POW.AF4.Gamma
11607,1645900992.3520029,1645900992.374965,6.0,0.0,4358.461426,4448.717772999999,4202.05127,4187.179688,4249.743652,41.0,1.0,15.0,,,,0.0,4.0,0.0,0.0,2.0,4.0,16.666666,,,,,,,,3.0,0.0,0.7181390000000001,0.044189,0.664795,0.200928,0.9580219999999999,-0.338384,-0.10888800000000001,-0.031218,-0.033565,-0.005278,1.0,0.0,0.0,,,,,,,,,,,,,,,,,,,,,,,,,,,,,,,,0.0,0.0,1.0,0.0,512.0,0.640303,6.615310000000001,9.460146,2.215171,1.501275,2.265978,44.651610999999995,19.492903,20.00083,21.908520000000003,25.085274,19.471642000000003,37.417122,6.799542,7.144014,9.570803,6.905028999999999,6.263856,7.88405,5.471038,3.4598980000000004,5.136057,6.338867,3.77207,1.6749310000000002,2.798257
11608,1645900992.359817,1645900992.38278,7.0,0.0,4345.641113000001,4530.769043,4206.153809,4166.666504,4288.205078,450.0,1.0,15.0,,,,0.0,4.0,0.0,0.0,2.0,4.0,16.666666,,,,,,,,,,,,,,,,,,,,,,,,,,,,,,,,,,,,,,,,,,,,,,,,,,,,,,,,,,,,,,,,,,,,,,,,,,,,,,,,,,,,
11609,1645900992.36763,1645900992.390595,8.0,0.0,4337.94873,4590.769043,4207.692383,4162.05127,4317.94873,450.0,1.0,15.0,,,,0.0,4.0,0.0,0.0,2.0,4.0,16.666666,,,,,,,,4.0,0.0,0.71807,0.044189,0.664795,0.201172,0.934585,-0.33105999999999997,-0.10009900000000001,-0.028145,-0.033529,-0.0071909999999999995,,,,,,,,,,,,,,,,,,,,,,,,,,,,,,,,,,,,,,,,,,,,,,,,,,,,,,,,,,,,,,,,,
11610,1645900992.375444,1645900992.3984098,9.0,0.0,4354.358886999999,4555.897461,4182.05127,4145.128418,4300.0,249.0,1.0,15.0,,,,0.0,4.0,0.0,0.0,2.0,4.0,16.666666,,,,,,,,,,,,,,,,,,,,,,,,,,,,,,,,,,,,,,,,,,,,,,,,,,,,,,,,,,,,,,,,,,,,,,,,,,,,,,,,,,,,
11611,1645900992.383257,1645900992.406225,10.0,0.0,4371.282227000001,4546.153809,4223.077147999999,4144.615234000001,4283.077147999999,450.0,1.0,15.0,,,,0.0,4.0,0.0,0.0,2.0,4.0,16.666666,,,,,,,,5.0,0.0,0.71807,0.044189,0.664795,0.201172,0.940932,-0.340337,-0.105959,-0.02538,-0.033545,-0.008865000000000001,,,,,,,,,,,,,,,,,,,,,,,,,,,,,,,,,,,0.0,0.0,1.0,0.0,512.0,0.640303,,,,,,,,,,,,,,,,,,,,,,,,,
11612,1645900992.391071,1645900992.414139,11.0,0.0,4357.436035,4565.128418,4252.820313,4163.077147999999,4258.974121,16058.0,1.0,15.0,,,,0.0,4.0,0.0,0.0,2.0,4.0,16.666666,,,,,,,,,,,,,,,,,,,,,,,,,,,,,,,,,,,,,,,,,,,,,,,,,,,,,,,,,,,,,,,,,,,,,,,,,,,,,,,,,,,,
11613,1645900992.398885,1645900992.421954,12.0,0.0,4358.974121,4526.153809,4233.846191,4152.820313,4262.563965,450.0,1.0,15.0,,,,0.0,4.0,0.0,0.0,2.0,4.0,16.666666,,,,,,,,6.0,0.0,0.717987,0.044433999999999994,0.664795,0.201416,0.941909,-0.346197,-0.105959,-0.025918,-0.033413,-0.01042,,,,,,,,,,,,,,,,,,,,,,,,,,,,,,,,,,,,,,,,,,,,,,,,,,,,,,,,,,,,,,,,,
11614,1645900992.406698,1645900992.429768,13.0,0.0,4365.641113000001,4425.128418,4227.692383,4160.0,4286.666504,450.0,1.0,15.0,,,,0.0,4.0,0.0,0.0,2.0,4.0,16.666666,,,,,,,,,,,,,,,,,,,,,,,,,,,,,,,,,,,,,,,,,,,,,,,,,,,,,,,,,,,,,,,,,,,,,,,,,,,,,,,,,,,,
11615,1645900992.414512,1645900992.437583,14.0,0.0,4344.102539,4376.410156,4284.102539,4194.358886999999,4260.512695,450.0,1.0,15.0,,,,0.0,4.0,0.0,0.0,2.0,4.0,16.666666,,,,,,,,7.0,0.0,0.717987,0.044433999999999994,0.664795,0.201416,0.9365379999999999,-0.336919,-0.113283,-0.0265,-0.033343,-0.008645,,,,,,,,,,,,,,,,,,,,,,,,,,,,,,,,,,,0.0,0.0,1.0,0.0,512.0,0.640303,,,,,,,,,,,,,,,,,,,,,,,,,
11616,1645900992.422325,1645900992.445398,15.0,0.0,4333.846191,4447.692383,4294.871582,4178.461426,4242.563965,16058.0,1.0,15.0,,,,0.0,4.0,0.0,0.0,2.0,4.0,16.666666,,,,,,,,,,,,,,,,,,,,,,,,,,,,,,,,,,,,,,,,,,,,,,,,,,,,,,,,,,,,,,,,,,,,,,,,,,,,,,,,,,,,
11617,1645900992.430139,1645900992.453212,16.0,0.0,4346.666504,4528.205078,4263.589844,4153.333496,4280.0,0.0,1.0,15.0,,,,0.0,4.0,0.0,0.0,2.0,4.0,16.666666,,,,,,,,8.0,0.0,0.718055,0.044433999999999994,0.664795,0.201172,0.9404440000000001,-0.345708,-0.112795,-0.027024,-0.033378,-0.010173999999999999,,,,,,,,,,,,,,,,,,,,,,,,,,,,,,,,,,,,,,,,,,,,,,,,,,,,,,,,,,,,,,,,,
11618,1645900992.437953,1645900992.461027,17.0,0.0,4358.461426,4493.846191,4229.230957,4171.282227000001,4294.871582,0.0,1.0,15.0,,,,0.0,4.0,0.0,0.0,2.0,4.0,16.666666,,,,,,,,,,,,,,,,,,,,,,,,,,,,,,,,,,,,,,,,,,,,,,,,,,,,,,,,,,,,,,,,,,,,,,,,,,,,,,,,,,,,
11619,1645900992.445766,1645900992.468842,18.0,0.0,4347.692383,4442.05127,4288.717772999999,4165.128418,4262.563965,0.0,1.0,15.0,,,,0.0,4.0,0.0,0.0,2.0,4.0,16.666666,,,,,,,,9.0,0.0,0.718266,0.044677999999999995,0.664551,0.201172,0.94435,-0.34229,-0.118654,-0.027398000000000002,-0.033263,-0.011598,,,,,,,,,,,,,,,,,,,,,,,,,,,,,,,,,,,0.0,0.0,1.0,0.0,512.0,0.640303,,,,,,,,,,,,,,,,,,,,,,,,,
11620,1645900992.4535801,1645900992.476656,19.0,0.0,4351.794922,4527.179688,4245.641113000001,4142.563965,4269.743652,0.0,1.0,15.0,,,,0.0,4.0,0.0,0.0,2.0,4.0,16.666666,,,,,,,,,,,,,,,,,,,,,,,,,,,,,,,,,,,,,,,,,,,,,,,,,,,,,,,,,,,,,,,,,,,,,,,,,,,,,,,,,,,,
11621,1645900992.4613929,1645900992.484471,20.0,0.0,4352.307617,4589.743652,4196.922852000001,4151.794922,4290.769043,0.0,1.0,15.0,,,,0.0,4.0,0.0,0.0,2.0,4.0,16.666666,,,,,,,,10.0,0.0,0.718124,0.044433999999999994,0.664795,0.200928,0.941909,-0.334966,-0.105959,-0.024707,-0.033306,-0.012782,,,,,,,,,,,,,,,,,,,,,,,,,,,,,,,,,,,,,,,,,,,,,,,,,,,,,,,,,,,,,,,,,
11622,1645900992.469207,1645900992.492385,21.0,0.0,4350.769043,4566.153809,4208.717772999999,4164.615234000001,4290.769043,0.0,1.0,15.0,,,,0.0,4.0,0.0,0.0,2.0,4.0,16.666666,,,,,,,,,,,,,,,,,,,,,,,,,,,,,,,,,,,,,,,,,,,,,,,,,,,,,,,,,,,,,,,,,,,,,,,,,,,,,,,,,,,,
11623,1645900992.477021,1645900992.5002,22.0,0.0,4353.846191,4574.871582,4180.0,4126.153809,4282.563965,0.0,1.0,15.0,,,,0.0,4.0,0.0,0.0,2.0,4.0,16.666666,1.0,16.666666,4.0,0.0,0.0,2.0,3.0,11.0,0.0,0.718124,0.044433999999999994,0.664795,0.200928,0.9463030000000001,-0.337407,-0.113283,-0.025312,-0.033247000000000006,-0.010771,1.0,0.0,0.0,,,,,,,,,,,,,,,,,,,,,,,,,,,,,,,,0.0,0.0,1.0,0.0,512.0,0.6037680000000001,5.489707,9.064333,1.9809599999999998,1.49404,2.173728,45.268993,23.222172,19.725576,25.393484,24.608068,17.645014,37.684909999999995,6.229876,7.309191,9.058438,6.033092,5.489457,8.24885,5.005631,3.71599,5.827157,5.62625,2.879721,1.603034,2.759897
11624,1645900992.484834,1645900992.5080152,23.0,0.0,4362.563965,4546.153809,4167.692383,4144.102539,4281.025879,0.0,1.0,15.0,,,,0.0,4.0,0.0,0.0,2.0,4.0,16.666666,,,,,,,,,,,,,,,,,,,,,,,,,,,,,,,,,,,,,,,,,,,,,,,,,,,,,,,,,,,,,,,,,,,,,,,,,,,,,,,,,,,,
11625,1645900992.4926481,1645900992.5158288,24.0,0.0,4357.436035,4417.94873,4221.538574,4211.794922,4266.666504,0.0,1.0,15.0,,,,0.0,4.0,0.0,0.0,2.0,4.0,16.666666,,,,,,,,12.0,0.0,0.718192,0.044433999999999994,0.664795,0.200684,0.9428850000000001,-0.338384,-0.11572400000000001,-0.026101,-0.033096,-0.012038,,,,,,,,,,,,,,,,,,,,,,,,,,,,,,,,,,,,,,,,,,,,,,,,,,,,,,,,,,,,,,,,,
11626,1645900992.5004609,1645900992.523644,25.0,0.0,4353.333496,4401.538574,4215.384765999999,4219.487305,4287.179688,0.0,1.0,15.0,,,,0.0,4.0,0.0,0.0,2.0,4.0,16.666666,,,,,,,,,,,,,,,,,,,,,,,,,,,,,,,,,,,,,,,,,,,,,,,,,,,,,,,,,,,,,,,,,,,,,,,,,,,,,,,,,,,,
11627,1645900992.508275,1645900992.531459,26.0,0.0,4332.307617,4511.794922,4177.436035,4196.922852000001,4290.256348,0.0,1.0,15.0,,,,0.0,4.0,0.0,0.0,2.0,4.0,16.666666,,,,,,,,13.0,0.0,0.718192,0.044433999999999994,0.664795,0.200684,0.934585,-0.32910700000000004,-0.10693499999999999,-0.026763,-0.033058,-0.013178,,,,,,,,,,,,,,,,,,,,,,,,,,,,,,,,,,,0.0,0.0,1.0,0.0,512.0,0.6037680000000001,,,,,,,,,,,,,,,,,,,,,,,,,
11628,1645900992.516088,1645900992.539273,27.0,0.0,4329.230957,4512.307617,4248.205078,4199.487305,4253.333496,0.0,1.0,15.0,,,,0.0,4.0,0.0,0.0,2.0,4.0,16.666666,,,,,,,,,,,,,,,,,,,,,,,,,,,,,,,,,,,,,,,,,,,,,,,,,,,,,,,,,,,,,,,,,,,,,,,,,,,,,,,,,,,,
11629,1645900992.523902,1645900992.5470881,28.0,0.0,4337.94873,4454.358886999999,4290.769043,4148.717772999999,4257.436035,0.0,1.0,15.0,,,,0.0,4.0,0.0,0.0,2.0,4.0,16.666666,,,,,,,,14.0,0.0,0.718418,0.044433999999999994,0.664551,0.200684,0.94435,-0.32861799999999997,-0.10351700000000001,-0.027260000000000003,-0.033121,-0.014155000000000001,,,,,,,,,,,,,,,,,,,,,,,,,,,,,,,,,,,,,,,,,,,,,,,,,,,,,,,,,,,,,,,,,
11630,1645900992.531716,1645900992.554903,29.0,0.0,4325.641113000001,4455.384765999999,4260.0,4103.077147999999,4291.794922,0.0,1.0,15.0,,,,0.0,4.0,0.0,0.0,2.0,4.0,16.666666,,,,,,,,,,,,,,,,,,,,,,,,,,,,,,,,,,,,,,,,,,,,,,,,,,,,,,,,,,,,,,,,,,,,,,,,,,,,,,,,,,,,
11631,1645900992.5395288,1645900992.562817,30.0,0.0,4324.102539,4425.128418,4222.563965,4144.102539,4277.436035,0.0,1.0,15.0,,,,0.0,4.0,0.0,0.0,2.0,4.0,16.666666,,,,,,,,15.0,0.0,0.718433,0.044189,0.664551,0.200684,0.9365379999999999,-0.323735,-0.12549000000000002,-0.027708,-0.033179,-0.011958,,,,,,,,,,,,,,,,,,,,,,,,,,,,,,,,,,,0.0,0.0,1.0,0.0,512.0,0.6037680000000001,,,,,,,,,,,,,,,,,,,,,,,,,
11632,1645900992.547343,1645900992.570632,31.0,0.0,4335.897461,4353.333496,4257.94873,4170.256348,4256.410156,0.0,1.0,15.0,,,,0.0,4.0,0.0,0.0,2.0,4.0,16.666666,,,,,,,,,,,,,,,,,,,,,,,,,,,,,,,,,,,,,,,,,,,,,,,,,,,,,,,,,,,,,,,,,,,,,,,,,,,,,,,,,,,,
11633,1645900992.555156,1645900992.5784461,32.0,0.0,4345.128418,4337.94873,4240.512695,4138.974121,4273.333496,0.0,1.0,15.0,,,,0.0,4.0,0.0,0.0,2.0,4.0,16.666666,,,,,,,,16.0,0.0,0.718433,0.044189,0.664551,0.200684,0.945327,-0.34229,-0.11230599999999999,-0.028111,-0.033132,-0.013106,,,,,,,,,,,,,,,,,,,,,,,,,,,,,,,,,,,,,,,,,,,,,,,,,,,,,,,,,,,,,,,,,
11634,1645900992.56297,1645900992.586261,33.0,0.0,4340.512695,4384.615234000001,4252.820313,4126.666504,4280.512695,0.0,1.0,15.0,,,,0.0,4.0,0.0,0.0,2.0,4.0,16.666666,,,,,,,,,,,,,,,,,,,,,,,,,,,,,,,,,,,,,,,,,,,,,,,,,,,,,,,,,,,,,,,,,,,,,,,,,,,,,,,,,,,,
11635,1645900992.570784,1645900992.594076,34.0,0.0,4347.692383,4370.256348,4313.333496,4149.230957,4277.436035,0.0,1.0,15.0,,,,0.0,4.0,0.0,0.0,2.0,4.0,16.666666,,,,,,,,17.0,0.0,0.718433,0.044189,0.664551,0.200684,0.949233,-0.334966,-0.116701,-0.028523000000000003,-0.033091,-0.01409,,,,,,,,,,,,,,,,,,,,,,,,,,,,,,,,,,,0.0,0.0,1.0,0.0,512.0,0.6037680000000001,,,,,,,,,,,,,,,,,,,,,,,,,
11636,1645900992.578597,1645900992.60189,35.0,0.0,4365.128418,4350.256348,4276.922852000001,4157.436035,4277.94873,0.0,1.0,15.0,,,,0.0,4.0,0.0,0.0,2.0,4.0,16.666666,,,,,,,,,,,,,,,,,,,,,,,,,,,,,,,,,,,,,,,,,,,,,,,,,,,,,,,,,,,,,,,,,,,,,,,,,,,,,,,,,,,,
11637,1645900992.586411,1645900992.609705,36.0,0.0,4362.05127,4449.230957,4175.384765999999,4184.102539,4274.871582,0.0,1.0,15.0,,,,0.0,4.0,0.0,0.0,2.0,4.0,16.666666,,,,,,,,18.0,0.0,0.718433,0.044189,0.664551,0.200684,0.9433739999999999,-0.316899,-0.11230599999999999,-0.028893000000000002,-0.033248,-0.014976,,,,,,,,,,,,,,,,,,,,,,,,,,,,,,,,,,,,,,,,,,,,,,,,,,,,,,,,,,,,,,,,,
11638,1645900992.594224,1645900992.6175199,37.0,0.0,4340.512695,4514.358886999999,4211.282227000001,4216.922852000001,4251.282227000001,0.0,1.0,15.0,,,,0.0,4.0,0.0,0.0,2.0,4.0,16.666666,,,,,,,,,,,,,,,,,,,,,,,,,,,,,,,,,,,,,,,,,,,,,,,,,,,,,,,,,,,,,,,,,,,,,,,,,,,,,,,,,,,,
11639,1645900992.6020381,1645900992.625334,38.0,0.0,4350.769043,4484.615234000001,4206.153809,4181.025879,4270.256348,0.0,1.0,15.0,,,,0.0,4.0,0.0,0.0,2.0,4.0,16.666666,,,,,,,,19.0,0.0,0.7185010000000001,0.044189,0.664551,0.200439,0.940932,-0.323735,-0.11523599999999999,-0.029129000000000002,-0.033342000000000004,-0.01592,1.0,0.0,0.0,,,,,,,,,,,,,,,,,,,,,,,,,,,,,,,,0.0,0.0,1.0,0.0,512.0,0.753612,4.375854,8.480098,2.024762,1.402509,2.021774,42.134628,28.282329999999998,20.488863000000002,28.682315999999997,23.295292,16.883942,38.272728,5.961078,7.456027000000001,8.374023,4.948016,4.544647,8.075219,4.657785,3.907722,6.201579,5.220007,2.0741009999999998,1.610196,2.6471150000000003
11640,1645900992.6098518,1645900992.633149,39.0,0.0,4327.179688,4458.461426,4154.358886999999,4131.282227000001,4298.974121,0.0,1.0,15.0,,,,0.0,4.0,0.0,0.0,2.0,4.0,16.666666,,,,,,,,,,,,,,,,,,,,,,,,,,,,,,,,,,,,,,,,,,,,,,,,,,,,,,,,,,,,,,,,,,,,,,,,,,,,,,,,,,,,
11641,1645900992.617665,1645900992.6410642,40.0,0.0,4312.307617,4446.153809,4175.897461,4157.436035,4287.179688,0.0,1.0,15.0,,,,0.0,4.0,0.0,0.0,2.0,4.0,16.666666,,,,,,,,20.0,0.0,0.718433,0.044189,0.664551,0.200684,0.949233,-0.334966,-0.116701,-0.02939,-0.033377,-0.013547,,,,,,,,,,,,,,,,,,,,,,,,,,,,,,,,,,,,,,,,,,,,,,,,,,,,,,,,,,,,,,,,,
11642,1645900992.625479,1645900992.648978,41.0,0.0,4352.307617,4456.410156,4218.974121,4153.333496,4268.717772999999,0.0,1.0,15.0,,,,0.0,4.0,0.0,0.0,2.0,4.0,16.666666,,,,,,,,,,,,,,,,,,,,,,,,,,,,,,,,,,,,,,,,,,,,,,,,,,,,,,,,,,,,,,,,,,,,,,,,,,,,,,,,,,,,
11643,1645900992.633292,1645900992.6567929,42.0,0.0,4366.666504,4508.205078,4263.589844,4132.307617,4282.05127,0.0,1.0,15.0,,,,0.0,4.0,0.0,0.0,2.0,4.0,16.666666,,,,,,,,21.0,0.0,0.7185010000000001,0.044189,0.664551,0.200439,0.940932,-0.323735,-0.11523599999999999,-0.029575999999999998,-0.033457,-0.014634000000000001,,,,,,,,,,,,,,,,,,,,,,,,,,,,,,,,,,,0.0,0.0,1.0,0.0,512.0,0.753612,,,,,,,,,,,,,,,,,,,,,,,,,
11644,1645900992.6411061,1645900992.664607,43.0,0.0,4332.820313,4552.820313,4280.512695,4166.666504,4267.179688,0.0,1.0,15.0,,,,0.0,4.0,0.0,0.0,2.0,4.0,16.666666,,,,,,,,,,,,,,,,,,,,,,,,,,,,,,,,,,,,,,,,,,,,,,,,,,,,,,,,,,,,,,,,,,,,,,,,,,,,,,,,,,,,
11645,1645900992.6489198,1645900992.6724222,44.0,0.0,4330.769043,4577.94873,4275.897461,4183.077147999999,4249.743652,0.0,1.0,15.0,,,,0.0,4.0,0.0,0.0,2.0,4.0,16.666666,,,,,,,,22.0,0.0,0.7185010000000001,0.044189,0.664551,0.200439,0.9463030000000001,-0.334478,-0.11572400000000001,-0.029792000000000003,-0.033431999999999996,-0.015513999999999998,,,,,,,,,,,,,,,,,,,,,,,,,,,,,,,,,,,,,,,,,,,,,,,,,,,,,,,,,,,,,,,,,
11646,1645900992.656733,1645900992.6802368,45.0,0.0,4331.794922,4520.512695,4241.538574,4150.256348,4253.846191,0.0,1.0,15.0,,,,0.0,4.0,0.0,0.0,2.0,4.0,16.666666,,,,,,,,,,,,,,,,,,,,,,,,,,,,,,,,,,,,,,,,,,,,,,,,,,,,,,,,,,,,,,,,,,,,,,,,,,,,,,,,,,,,
11647,1645900992.664547,1645900992.688051,46.0,0.0,4323.077147999999,4413.846191,4244.615234000001,4156.922852000001,4249.743652,0.0,1.0,15.0,,,,0.0,4.0,0.0,0.0,2.0,4.0,16.666666,,,,,,,,23.0,0.0,0.7185010000000001,0.044189,0.664551,0.200439,0.944839,-0.336431,-0.10351700000000001,-0.030182,-0.033262,-0.016258,,,,,,,,,,,,,,,,,,,,,,,,,,,,,,,,,,,0.0,0.0,1.0,0.0,512.0,0.753612,,,,,,,,,,,,,,,,,,,,,,,,,
11648,1645900992.67236,1645900992.695866,47.0,0.0,4337.94873,4415.897461,4256.922852000001,4172.307617,4265.128418,0.0,1.0,15.0,,,,0.0,4.0,0.0,0.0,2.0,4.0,16.666666,,,,,,,,,,,,,,,,,,,,,,,,,,,,,,,,,,,,,,,,,,,,,,,,,,,,,,,,,,,,,,,,,,,,,,,,,,,,,,,,,,,,
11649,1645900992.680174,1645900992.703681,48.0,0.0,4345.128418,4512.820313,4274.358886999999,4160.0,4281.538574,0.0,1.0,15.0,,,,0.0,4.0,0.0,0.0,2.0,4.0,16.666666,,,,,,,,24.0,0.0,0.718569,0.044189,0.664551,0.200195,0.937514,-0.326177,-0.11523599999999999,-0.030338,-0.033354,-0.013850999999999999,,,,,,,,,,,,,,,,,,,,,,,,,,,,,,,,,,,,,,,,,,,,,,,,,,,,,,,,,,,,,,,,,
11650,1645900992.687988,1645900992.7115948,49.0,0.0,4343.589844,4549.743652,4225.128418,4161.025879,4266.666504,0.0,1.0,15.0,,,,0.0,4.0,0.0,0.0,2.0,4.0,16.666666,,,,,,,,,,,,,,,,,,,,,,,,,,,,,,,,,,,,,,,,,,,,,,,,,,,,,,,,,,,,,,,,,,,,,,,,,,,,,,,,,,,,
11651,1645900992.695801,1645900992.71941,50.0,0.0,4324.102539,4515.897461,4225.641113000001,4155.897461,4239.487305,0.0,1.0,15.0,,,,0.0,4.0,0.0,0.0,2.0,4.0,16.666666,,,,,,,,25.0,0.0,0.718569,0.044189,0.664551,0.200195,0.9506979999999999,-0.325689,-0.105959,-0.030477999999999998,-0.033339,-0.014858000000000001,,,,,,,,,,,,,,,,,,,,,,,,,,,,,,,,,,,0.0,0.0,1.0,0.0,512.0,0.753612,,,,,,,,,,,,,,,,,,,,,,,,,
11652,1645900992.703615,1645900992.727225,51.0,0.0,4322.05127,4506.666504,4189.743652,4127.179688,4255.897461,0.0,1.0,15.0,,,,0.0,4.0,0.0,0.0,2.0,4.0,16.666666,,,,,,,,,,,,,,,,,,,,,,,,,,,,,,,,,,,,,,,,,,,,,,,,,,,,,,,,,,,,,,,,,,,,,,,,,,,,,,,,,,,,
11653,1645900992.711428,1645900992.73504,52.0,0.0,4344.615234000001,4541.538574,4159.487305,4115.897461,4295.384765999999,0.0,1.0,15.0,,,,0.0,4.0,0.0,0.0,2.0,4.0,16.666666,,,,,,,,26.0,0.0,0.718554,0.044433999999999994,0.664551,0.200195,0.9555809999999999,-0.336431,-0.11767799999999999,-0.030701999999999997,-0.033423,-0.012591,,,,,,,,,,,,,,,,,,,,,,,,,,,,,,,,,,,,,,,,,,,,,,,,,,,,,,,,,,,,,,,,,
11654,1645900992.719242,1645900992.742855,53.0,0.0,4357.94873,4545.128418,4222.05127,4171.282227000001,4296.410156,0.0,1.0,15.0,,,,0.0,4.0,0.0,0.0,2.0,4.0,16.666666,,,,,,,,,,,,,,,,,,,,,,,,,,,,,,,,,,,,,,,,,,,,,,,,,,,,,,,,,,,,,,,,,,,,,,,,,,,,,,,,,,,,
11655,1645900992.727055,1645900992.75067,54.0,0.0,4361.025879,4529.230957,4267.692383,4186.153809,4262.563965,0.0,1.0,15.0,,,,0.0,4.0,0.0,0.0,2.0,4.0,16.666666,,,,,,,,27.0,0.0,0.718486,0.044433999999999994,0.664551,0.200439,0.9633940000000001,-0.33789600000000003,-0.112795,-0.030902999999999996,-0.033597,-0.013627,1.0,0.0,0.0,,,,,,,,,,,,,,,,,,,,,,,,,,,,,,,,0.0,0.0,1.0,0.0,512.0,0.716305,3.515142,7.77265,2.281732,1.257527,1.8064810000000002,36.611183000000004,34.192211,22.284269000000002,30.315617,21.581833,17.380304000000002,39.556152000000004,5.841359,7.594010000000001,7.577878,3.9792160000000005,3.644878,7.442245,4.582816,3.9342949999999997,6.0515,5.296207,1.436876,1.625951,2.474698
11656,1645900992.734869,1645900992.758485,55.0,0.0,4366.666504,4509.230957,4233.333496,4171.282227000001,4280.512695,0.0,1.0,15.0,,,,0.0,4.0,0.0,0.0,2.0,4.0,16.666666,,,,,,,,,,,,,,,,,,,,,,,,,,,,,,,,,,,,,,,,,,,,,,,,,,,,,,,,,,,,,,,,,,,,,,,,,,,,,,,,,,,,
11657,1645900992.742683,1645900992.7663,56.0,0.0,4336.410156,4403.077147999999,4226.153809,4212.820313,4272.820313,0.0,1.0,15.0,,,,0.0,4.0,0.0,0.0,2.0,4.0,16.666666,,,,,,,,28.0,0.0,0.718471,0.044677999999999995,0.664551,0.200439,0.937514,-0.333013,-0.11084200000000001,-0.030938,-0.033411,-0.014462000000000001,,,,,,,,,,,,,,,,,,,,,,,,,,,,,,,,,,,,,,,,,,,,,,,,,,,,,,,,,,,,,,,,,
11658,1645900992.7504961,1645900992.7741141,57.0,0.0,4342.05127,4362.563965,4234.871582,4210.769043,4250.256348,0.0,1.0,15.0,,,,0.0,4.0,0.0,0.0,2.0,4.0,16.666666,,,,,,,,,,,,,,,,,,,,,,,,,,,,,,,,,,,,,,,,,,,,,,,,,,,,,,,,,,,,,,,,,,,,,,,,,,,,,,,,,,,,
11659,1645900992.75831,1645900992.781929,58.0,0.0,4331.282227000001,4470.769043,4251.794922,4124.102539,4285.128418,0.0,1.0,15.0,,,,0.0,4.0,0.0,0.0,2.0,4.0,16.666666,,,,,,,,29.0,0.0,0.718313,0.044677999999999995,0.664795,0.200195,0.9423969999999999,-0.336431,-0.109377,-0.03092,-0.033389999999999996,-0.015309999999999999,,,,,,,,,,,,,,,,,,,,,,,,,,,,,,,,,,,0.0,0.0,1.0,0.0,512.0,0.716305,,,,,,,,,,,,,,,,,,,,,,,,,
11660,1645900992.766123,1645900992.789844,59.0,0.0,4277.94873,4494.871582,4266.666504,4138.974121,4300.0,0.0,1.0,15.0,,,,0.0,4.0,0.0,0.0,2.0,4.0,16.666666,,,,,,,,,,,,,,,,,,,,,,,,,,,,,,,,,,,,,,,,,,,,,,,,,,,,,,,,,,,,,,,,,,,,,,,,,,,,,,,,,,,,
11661,1645900992.773937,1645900992.797658,60.0,0.0,4298.974121,4450.769043,4222.563965,4195.384765999999,4260.0,0.0,1.0,15.0,,,,0.0,4.0,0.0,0.0,2.0,4.0,16.666666,,,,,,,,30.0,0.0,0.718313,0.044677999999999995,0.664795,0.200195,0.9463030000000001,-0.327153,-0.107912,-0.031002,-0.033469,-0.0129,,,,,,,,,,,,,,,,,,,,,,,,,,,,,,,,,,,,,,,,,,,,,,,,,,,,,,,,,,,,,,,,,
11662,1645900992.781751,1645900992.805473,61.0,0.0,4355.384765999999,4467.692383,4256.410156,4163.077147999999,4268.717772999999,0.0,1.0,15.0,,,,0.0,4.0,0.0,0.0,2.0,4.0,16.666666,,,,,,,,,,,,,,,,,,,,,,,,,,,,,,,,,,,,,,,,,,,,,,,,,,,,,,,,,,,,,,,,,,,,,,,,,,,,,,,,,,,,
11663,1645900992.7895641,1645900992.813288,62.0,0.0,4340.512695,4460.0,4274.871582,4151.794922,4286.153809,0.0,1.0,15.0,,,,0.0,4.0,0.0,0.0,2.0,4.0,16.666666,,,,,,,,31.0,0.0,0.718313,0.044677999999999995,0.664795,0.200195,0.9399559999999999,-0.341314,-0.106447,-0.031076,-0.033345,-0.013954,,,,,,,,,,,,,,,,,,,,,,,,,,,,,,,,,,,0.0,0.0,1.0,0.0,512.0,0.716305,,,,,,,,,,,,,,,,,,,,,,,,,
11664,1645900992.7973778,1645900992.821202,63.0,0.0,4316.410156,4453.333496,4280.0,4195.384765999999,4267.692383,0.0,1.0,15.0,,,,0.0,4.0,2.0,0.0,2.0,4.0,33.333332,,,,,,,,,,,,,,,,,,,,,,,,,,,,,,,,,,,,,,,,,,,,,,,,,,,,,,,,,,,,,,,,,,,,,,,,,,,,,,,,,,,,
11665,1645900992.805191,1645900992.829017,64.0,0.0,4340.512695,4518.974121,4303.589844,4191.282227000001,4281.025879,450.0,1.0,15.0,,,,0.0,4.0,2.0,0.0,2.0,4.0,33.333332,,,,,,,,32.0,0.0,0.718245,0.044677999999999995,0.664795,0.200439,0.9340959999999999,-0.332036,-0.11230599999999999,-0.031093,-0.03338,-0.011826,,,,,,,,,,,,,,,,,,,,,,,,,,,,,,,,,,,,,,,,,,,,,,,,,,,,,,,,,,,,,,,,,
11666,1645900992.813005,1645900992.836832,65.0,0.0,4333.846191,4579.487305,4300.512695,4149.230957,4292.307617,450.0,1.0,15.0,,,,0.0,4.0,2.0,0.0,2.0,4.0,33.333332,,,,,,,,,,,,,,,,,,,,,,,,,,,,,,,,,,,,,,,,,,,,,,,,,,,,,,,,,,,,,,,,,,,,,,,,,,,,,,,,,,,,
11667,1645900992.820819,1645900992.844646,66.0,0.0,4316.922852000001,4550.256348,4238.461426,4153.333496,4258.461426,16201.0,1.0,15.0,,,,0.0,4.0,2.0,0.0,2.0,4.0,33.333332,,,,,,,,33.0,0.0,0.718245,0.044677999999999995,0.664795,0.200439,0.9438620000000001,-0.335454,-0.104494,-0.031108999999999998,-0.033214999999999995,-0.012987,,,,,,,,,,,,,,,,,,,,,,,,,,,,,,,,,,,0.0,0.0,1.0,0.0,512.0,0.716305,,,,,,,,,,,,,,,,,,,,,,,,,
11668,1645900992.828632,1645900992.8524609,67.0,0.0,4328.717772999999,4498.974121,4251.282227000001,4153.333496,4221.538574,450.0,1.0,15.0,,,,0.0,4.0,2.0,0.0,2.0,4.0,33.333332,,,,,,,,,,,,,,,,,,,,,,,,,,,,,,,,,,,,,,,,,,,,,,,,,,,,,,,,,,,,,,,,,,,,,,,,,,,,,,,,,,,,
11669,1645900992.836446,1645900992.860276,68.0,0.0,4323.077147999999,4512.307617,4232.820313,4125.641113000001,4237.94873,188.0,1.0,15.0,,,,0.0,4.0,2.0,0.0,2.0,4.0,33.333332,,,,,,,,34.0,0.0,0.718245,0.044677999999999995,0.664795,0.200439,0.9428850000000001,-0.32959499999999997,-0.11621300000000001,-0.031221,-0.033117,-0.010956,,,,,,,,,,,,,,,,,,,,,,,,,,,,,,,,,,,,,,,,,,,,,,,,,,,,,,,,,,,,,,,,,
11670,1645900992.844259,1645900992.8680902,69.0,0.0,4268.717772999999,4480.0,4190.769043,4142.563965,4251.282227000001,450.0,1.0,15.0,,,,0.0,4.0,2.0,0.0,2.0,4.0,33.333332,,,,,,,,,,,,,,,,,,,,,,,,,,,,,,,,,,,,,,,,,,,,,,,,,,,,,,,,,,,,,,,,,,,,,,,,,,,,,,,,,,,,
11671,1645900992.852073,1645900992.875905,70.0,0.0,4281.538574,4406.153809,4166.666504,4184.102539,4245.641113000001,0.0,1.0,15.0,,,,0.0,4.0,2.0,0.0,2.0,4.0,33.333332,,,,,,,,35.0,0.0,0.718245,0.044677999999999995,0.664795,0.200439,0.9355610000000001,-0.340826,-0.100587,-0.028148000000000003,-0.033174,-0.012107,1.0,0.0,0.0,,,,,,,,,,,,,,,,,,,,,,,,,,,,,,,,0.0,0.0,1.0,0.0,512.0,0.804044,2.9580130000000002,7.0076979999999995,2.615212,1.110458,1.5583989999999999,31.557771999999996,40.123940000000005,25.182198,29.895388,19.8116,18.729116,41.531261,5.699016,7.688034,6.793314,3.314079,3.150059,6.7395830000000005,4.791894,3.776469,5.379955000000001,5.740379,0.9926370000000001,1.601748,2.287826
11672,1645900992.859887,1645900992.883719,71.0,0.0,4336.922852000001,4508.717772999999,4193.846191,4150.769043,4262.563965,450.0,1.0,15.0,,,,0.0,4.0,2.0,0.0,2.0,4.0,33.333332,,,,,,,,,,,,,,,,,,,,,,,,,,,,,,,,,,,,,,,,,,,,,,,,,,,,,,,,,,,,,,,,,,,,,,,,,,,,,,,,,,,,
11673,1645900992.8677,1645900992.891634,72.0,0.0,4341.538574,4650.769043,4248.717772999999,4146.153809,4302.05127,450.0,1.0,15.0,,,,0.0,4.0,2.0,0.0,4.0,4.0,50.0,,,,,,,,36.0,0.0,0.718245,0.044677999999999995,0.664795,0.200439,0.939467,-0.334478,-0.11035299999999999,-0.028604,-0.033079000000000004,-0.010261,,,,,,,,,,,,,,,,,,,,,,,,,,,,,,,,,,,,,,,,,,,,,,,,,,,,,,,,,,,,,,,,,
11674,1645900992.875514,1645900992.899449,73.0,0.0,4334.871582,4553.846191,4249.230957,4205.128418,4294.358886999999,16126.0,1.0,15.0,,,,0.0,4.0,2.0,0.0,4.0,4.0,50.0,,,,,,,,,,,,,,,,,,,,,,,,,,,,,,,,,,,,,,,,,,,,,,,,,,,,,,,,,,,,,,,,,,,,,,,,,,,,,,,,,,,,
11675,1645900992.883327,1645900992.907263,74.0,0.0,4350.256348,4481.025879,4241.025879,4211.794922,4276.922852000001,450.0,1.0,15.0,,,,0.0,4.0,2.0,0.0,4.0,4.0,50.0,,,,,,,,37.0,0.0,0.7181609999999999,0.044922000000000004,0.664795,0.200684,0.948257,-0.340337,-0.109377,-0.028918,-0.032994,-0.011579,,,,,,,,,,,,,,,,,,,,,,,,,,,,,,,,,,,0.0,0.0,1.0,0.0,512.0,0.804044,,,,,,,,,,,,,,,,,,,,,,,,,
11676,1645900992.891141,1645900992.915078,75.0,0.0,4322.05127,4557.436035,4242.563965,4184.615234000001,4268.717772999999,16219.0,1.0,15.0,,,,0.0,4.0,2.0,0.0,4.0,4.0,50.0,,,,,,,,,,,,,,,,,,,,,,,,,,,,,,,,,,,,,,,,,,,,,,,,,,,,,,,,,,,,,,,,,,,,,,,,,,,,,,,,,,,,
11677,1645900992.898955,1645900992.922893,76.0,0.0,4319.487305,4549.230957,4246.153809,4201.538574,4260.0,450.0,1.0,15.0,,,,0.0,4.0,2.0,0.0,4.0,4.0,50.0,,,,,,,,38.0,0.0,0.7181609999999999,0.044922000000000004,0.664795,0.200684,0.9438620000000001,-0.34521999999999997,-0.10693499999999999,-0.029249,-0.033063999999999996,-0.012716,,,,,,,,,,,,,,,,,,,,,,,,,,,,,,,,,,,,,,,,,,,,,,,,,,,,,,,,,,,,,,,,,
11678,1645900992.906768,1645900992.930707,77.0,0.0,4350.256348,4488.717772999999,4235.384765999999,4196.922852000001,4266.153809,450.0,1.0,15.0,,,,0.0,4.0,2.0,0.0,4.0,4.0,50.0,,,,,,,,,,,,,,,,,,,,,,,,,,,,,,,,,,,,,,,,,,,,,,,,,,,,,,,,,,,,,,,,,,,,,,,,,,,,,,,,,,,,
11679,1645900992.914582,1645900992.938522,78.0,0.0,4329.743652,4514.871582,4245.641113000001,4167.179688,4269.230957,450.0,1.0,15.0,,,,0.0,4.0,2.0,0.0,4.0,4.0,50.0,,,,,,,,39.0,0.0,0.7181609999999999,0.044922000000000004,0.664795,0.200684,0.945327,-0.331548,-0.116701,-0.029547000000000004,-0.033077999999999996,-0.010712000000000001,,,,,,,,,,,,,,,,,,,,,,,,,,,,,,,,,,,0.0,0.0,1.0,0.0,512.0,0.804044,,,,,,,,,,,,,,,,,,,,,,,,,
11680,1645900992.922395,1645900992.946337,79.0,0.0,4300.0,4534.358886999999,4223.589844,4164.102539,4257.94873,16219.0,1.0,15.0,,,,0.0,4.0,2.0,0.0,4.0,4.0,50.0,,,,,,,,,,,,,,,,,,,,,,,,,,,,,,,,,,,,,,,,,,,,,,,,,,,,,,,,,,,,,,,,,,,,,,,,,,,,,,,,,,,,
11681,1645900992.930209,1645900992.954151,80.0,0.0,4303.589844,4503.077147999999,4212.820313,4170.769043,4250.769043,450.0,1.0,15.0,,,,0.0,4.0,2.0,0.0,4.0,4.0,50.0,,,,,,,,40.0,0.0,0.7181609999999999,0.044922000000000004,0.664795,0.200684,0.9428850000000001,-0.326177,-0.104494,-0.029766,-0.033042,-0.011984999999999999,,,,,,,,,,,,,,,,,,,,,,,,,,,,,,,,,,,,,,,,,,,,,,,,,,,,,,,,,,,,,,,,,
11682,1645900992.938023,1645900992.961966,81.0,0.0,4313.846191,4541.025879,4177.94873,4154.358886999999,4270.769043,450.0,1.0,15.0,,,,0.0,4.0,2.0,0.0,4.0,4.0,50.0,,,,,,,,,,,,,,,,,,,,,,,,,,,,,,,,,,,,,,,,,,,,,,,,,,,,,,,,,,,,,,,,,,,,,,,,,,,,,,,,,,,,
11683,1645900992.9458358,1645900992.96988,82.0,0.0,4299.487305,4621.538574,4214.871582,4154.358886999999,4282.563965,450.0,1.0,15.0,,,,0.0,4.0,2.0,0.0,4.0,4.0,50.0,,,,,,,,41.0,0.0,0.7181609999999999,0.044922000000000004,0.664795,0.200684,0.953628,-0.341314,-0.11767799999999999,-0.03011,-0.033009,-0.013130000000000001,,,,,,,,,,,,,,,,,,,,,,,,,,,,,,,,,,,0.0,0.0,1.0,0.0,512.0,0.804044,,,,,,,,,,,,,,,,,,,,,,,,,
11684,1645900992.95365,1645900992.977695,83.0,0.0,4307.179688,4610.769043,4260.512695,4183.077147999999,4272.820313,16219.0,1.0,15.0,,,,0.0,4.0,2.0,0.0,4.0,4.0,50.0,,,,,,,,,,,,,,,,,,,,,,,,,,,,,,,,,,,,,,,,,,,,,,,,,,,,,,,,,,,,,,,,,,,,,,,,,,,,,,,,,,,,
11685,1645900992.961463,1645900992.9855099,84.0,0.0,4329.743652,4561.025879,4267.179688,4162.05127,4271.282227000001,450.0,1.0,15.0,,,,0.0,4.0,2.0,0.0,4.0,4.0,50.0,,,,,,,,42.0,0.0,0.7181609999999999,0.044922000000000004,0.664795,0.200684,0.9463030000000001,-0.344244,-0.107424,-0.030369999999999998,-0.03298,-0.014161000000000002,,,,,,,,,,,,,,,,,,,,,,,,,,,,,,,,,,,,,,,,,,,,,,,,,,,,,,,,,,,,,,,,,
11686,1645900992.969277,1645900992.993324,85.0,0.0,4338.974121,4552.820313,4256.410156,4155.897461,4284.615234000001,450.0,1.0,15.0,,,,0.0,4.0,2.0,0.0,4.0,4.0,50.0,,,,,,,,,,,,,,,,,,,,,,,,,,,,,,,,,,,,,,,,,,,,,,,,,,,,,,,,,,,,,,,,,,,,,,,,,,,,,,,,,,,,
11687,1645900992.9770901,1645900993.0011392,86.0,0.0,4346.153809,4520.512695,4249.743652,4186.153809,4262.05127,450.0,1.0,15.0,,,,0.0,4.0,2.0,0.0,4.0,4.0,50.0,1.0,16.666666,4.0,0.0,0.0,2.0,4.0,43.0,0.0,0.7181609999999999,0.044922000000000004,0.664795,0.200684,0.9506979999999999,-0.335454,-0.109377,-0.03036,-0.033002,-0.011963,1.0,0.0,0.0,,,,,,,,,,,,,,,,,,,,,,,,,,,,,,,,0.0,0.0,1.0,0.0,512.0,0.96724,2.619574,6.218853,2.918327,1.0172729999999999,1.324658,29.978384000000002,45.273685,29.083834000000003,28.274067,18.186094,20.300655,43.881954,5.527591,7.712975,6.1756839999999995,3.0028799999999998,3.3634720000000002,6.480783,5.162424,3.508443,4.388886,6.180232,0.748536,1.536267,2.146011
11688,1645900992.9849038,1645900993.0089538,87.0,0.0,4356.410156,4464.615234000001,4215.897461,4174.871582,4266.153809,16219.0,1.0,15.0,,,,0.0,4.0,2.0,0.0,4.0,4.0,50.0,,,,,,,,,,,,,,,,,,,,,,,,,,,,,,,,,,,,,,,,,,,,,,,,,,,,,,,,,,,,,,,,,,,,,,,,,,,,,,,,,,,,
11689,1645900992.992718,1645900993.016768,88.0,0.0,4321.025879,4429.743652,4216.410156,4146.666504,4285.641113000001,450.0,1.0,15.0,,,,0.0,4.0,2.0,0.0,4.0,4.0,50.0,,,,,,,,44.0,0.0,0.7181609999999999,0.044922000000000004,0.664795,0.200684,0.9428850000000001,-0.355962,-0.10498199999999999,-0.030449,-0.032925,-0.013111000000000001,,,,,,,,,,,,,,,,,,,,,,,,,,,,,,,,,,,,,,,,,,,,,,,,,,,,,,,,,,,,,,,,,
11690,1645900993.000531,1645900993.024583,89.0,0.0,4319.487305,4463.589844,4201.538574,4171.282227000001,4282.05127,450.0,1.0,15.0,,,,0.0,4.0,2.0,0.0,4.0,4.0,50.0,,,,,,,,,,,,,,,,,,,,,,,,,,,,,,,,,,,,,,,,,,,,,,,,,,,,,,,,,,,,,,,,,,,,,,,,,,,,,,,,,,,,
11691,1645900993.008345,1645900993.032398,90.0,0.0,4343.589844,4551.794922,4209.230957,4167.179688,4293.846191,450.0,1.0,15.0,,,,0.0,4.0,2.0,0.0,4.0,4.0,50.0,,,,,,,,45.0,0.0,0.7181609999999999,0.044922000000000004,0.664795,0.200684,0.9555809999999999,-0.35352100000000003,-0.109377,-0.030626999999999998,-0.032904,-0.010921,,,,,,,,,,,,,,,,,,,,,,,,,,,,,,,,,,,0.0,0.0,1.0,0.0,512.0,0.96724,,,,,,,,,,,,,,,,,,,,,,,,,
11692,1645900993.016158,1645900993.0403118,91.0,0.0,4307.692383,4567.692383,4302.563965,4149.230957,4314.358886999999,16219.0,1.0,15.0,,,,0.0,4.0,2.0,0.0,4.0,4.0,50.0,,,,,,,,,,,,,,,,,,,,,,,,,,,,,,,,,,,,,,,,,,,,,,,,,,,,,,,,,,,,,,,,,,,,,,,,,,,,,,,,,,,,
11693,1645900993.023972,1645900993.048127,92.0,0.0,4292.820313,4483.077147999999,4253.846191,4143.077147999999,4283.589844,450.0,1.0,15.0,,,,0.0,4.0,2.0,0.0,4.0,4.0,50.0,,,,,,,,46.0,0.0,0.718214,0.045166000000000005,0.664795,0.200439,0.96144,-0.34473200000000004,-0.125002,-0.03069,-0.033031,-0.008999,,,,,,,,,,,,,,,,,,,,,,,,,,,,,,,,,,,,,,,,,,,,,,,,,,,,,,,,,,,,,,,,,
11694,1645900993.031786,1645900993.055941,93.0,0.0,4341.538574,4449.743652,4216.410156,4112.820313,4271.282227000001,450.0,1.0,15.0,,,,0.0,4.0,2.0,0.0,4.0,4.0,50.0,,,,,,,,,,,,,,,,,,,,,,,,,,,,,,,,,,,,,,,,,,,,,,,,,,,,,,,,,,,,,,,,,,,,,,,,,,,,,,,,,,,,
11695,1645900993.039599,1645900993.063756,94.0,0.0,4335.897461,4493.846191,4292.307617,4114.358886999999,4284.102539,450.0,1.0,15.0,,,,0.0,4.0,2.0,0.0,4.0,4.0,50.0,,,,,,,,47.0,0.0,0.718214,0.045166000000000005,0.664795,0.200439,0.940932,-0.325689,-0.122072,-0.030843000000000002,-0.033097,-0.007365999999999999,,,,,,,,,,,,,,,,,,,,,,,,,,,,,,,,,,,0.0,0.0,1.0,0.0,512.0,0.96724,,,,,,,,,,,,,,,,,,,,,,,,,
11696,1645900993.047413,1645900993.071571,95.0,0.0,4294.358886999999,4546.666504,4313.846191,4145.641113000001,4259.487305,16219.0,1.0,15.0,,,,0.0,4.0,2.0,0.0,4.0,4.0,50.0,,,,,,,,,,,,,,,,,,,,,,,,,,,,,,,,,,,,,,,,,,,,,,,,,,,,,,,,,,,,,,,,,,,,,,,,,,,,,,,,,,,,
11697,1645900993.055226,1645900993.079385,96.0,0.0,4306.153809,4534.871582,4270.769043,4129.743652,4230.769043,450.0,1.0,15.0,,,,0.0,4.0,2.0,0.0,4.0,4.0,50.0,,,,,,,,48.0,0.0,0.7181609999999999,0.044922000000000004,0.664795,0.200684,0.9555809999999999,-0.35352100000000003,-0.109377,-0.030982,-0.033059,-0.005751,,,,,,,,,,,,,,,,,,,,,,,,,,,,,,,,,,,,,,,,,,,,,,,,,,,,,,,,,,,,,,,,,
11698,1645900993.06304,1645900993.0872,97.0,0.0,4315.897461,4432.820313,4282.05127,4120.512695,4232.820313,450.0,1.0,15.0,,,,0.0,4.0,2.0,0.0,4.0,4.0,50.0,,,,,,,,,,,,,,,,,,,,,,,,,,,,,,,,,,,,,,,,,,,,,,,,,,,,,,,,,,,,,,,,,,,,,,,,,,,,,,,,,,,,
11699,1645900993.070854,1645900993.095015,98.0,0.0,4293.846191,4432.307617,4230.769043,4184.615234000001,4262.563965,450.0,1.0,15.0,,,,0.0,4.0,2.0,0.0,4.0,4.0,50.0,,,,,,,,49.0,0.0,0.718214,0.045166000000000005,0.664795,0.200439,0.940932,-0.325689,-0.122072,-0.031106,-0.033122000000000006,-0.004443,,,,,,,,,,,,,,,,,,,,,,,,,,,,,,,,,,,0.0,0.0,1.0,0.0,512.0,0.96724,,,,,,,,,,,,,,,,,,,,,,,,,
11700,1645900993.078667,1645900993.102829,99.0,0.0,4275.897461,4541.538574,4197.94873,4225.128418,4268.205078,16219.0,1.0,15.0,,,,0.0,4.0,2.0,0.0,4.0,4.0,50.0,,,,,,,,,,,,,,,,,,,,,,,,,,,,,,,,,,,,,,,,,,,,,,,,,,,,,,,,,,,,,,,,,,,,,,,,,,,,,,,,,,,,
11701,1645900993.086481,1645900993.110744,100.0,0.0,4308.717772999999,4560.0,4179.487305,4183.077147999999,4277.94873,450.0,1.0,15.0,,,,0.0,4.0,2.0,0.0,4.0,4.0,50.0,,,,,,,,50.0,0.0,0.718214,0.045166000000000005,0.664795,0.200439,0.9423969999999999,-0.336431,-0.11035299999999999,-0.031169,-0.033033,-0.006392,,,,,,,,,,,,,,,,,,,,,,,,,,,,,,,,,,,,,,,,,,,,,,,,,,,,,,,,,,,,,,,,,
11702,1645900993.0942938,1645900993.118558,101.0,0.0,4316.922852000001,4539.487305,4200.0,4127.692383,4311.794922,450.0,1.0,15.0,,,,0.0,4.0,2.0,0.0,4.0,4.0,50.0,,,,,,,,,,,,,,,,,,,,,,,,,,,,,,,,,,,,,,,,,,,,,,,,,,,,,,,,,,,,,,,,,,,,,,,,,,,,,,,,,,,,
11703,1645900993.102108,1645900993.126373,102.0,0.0,4302.05127,4515.897461,4258.461426,4152.307617,4313.333496,450.0,1.0,15.0,,,,0.0,4.0,2.0,0.0,4.0,4.0,50.0,,,,,,,,51.0,0.0,0.718214,0.045166000000000005,0.664795,0.200439,0.944839,-0.3252,-0.119631,-0.031275,-0.033001,-0.005069,1.0,0.0,0.0,,,,,,,,,,,,,,,,,,,,,,,,,,,,,,,,0.0,0.0,1.0,0.0,512.0,0.74353,2.399179,5.454623000000001,3.193964,1.025627,1.164147,33.437187,49.067986,33.590782,26.931722999999998,16.791334,21.629852,45.940681,5.6631800000000005,7.673178,5.827173999999999,3.003488,4.244016,7.032352,5.51457,3.266762,3.435797,6.268524,0.731796,1.4743620000000002,2.095017
11704,1645900993.1099222,1645900993.1341882,103.0,0.0,4327.179688,4490.769043,4267.179688,4168.717772999999,4264.615234000001,16219.0,1.0,15.0,,,,0.0,4.0,2.0,0.0,4.0,4.0,50.0,,,,,,,,,,,,,,,,,,,,,,,,,,,,,,,,,,,,,,,,,,,,,,,,,,,,,,,,,,,,,,,,,,,,,,,,,,,,,,,,,,,,
11705,1645900993.117735,1645900993.1420019,104.0,0.0,4353.846191,4518.974121,4214.358886999999,4146.153809,4267.692383,450.0,1.0,15.0,,,,0.0,4.0,2.0,0.0,4.0,4.0,50.0,,,,,,,,52.0,0.0,0.718214,0.045166000000000005,0.664795,0.200439,0.949233,-0.332036,-0.11084200000000001,-0.028197000000000003,-0.033119,-0.006906,,,,,,,,,,,,,,,,,,,,,,,,,,,,,,,,,,,,,,,,,,,,,,,,,,,,,,,,,,,,,,,,,
11706,1645900993.125549,1645900993.149817,105.0,0.0,4323.077147999999,4508.717772999999,4186.666504,4163.589844,4277.94873,450.0,1.0,15.0,,,,0.0,4.0,2.0,0.0,4.0,4.0,50.0,,,,,,,,,,,,,,,,,,,,,,,,,,,,,,,,,,,,,,,,,,,,,,,,,,,,,,,,,,,,,,,,,,,,,,,,,,,,,,,,,,,,
11707,1645900993.1333618,1645900993.157632,106.0,0.0,4324.615234000001,4497.94873,4189.230957,4197.436035,4266.666504,450.0,1.0,15.0,,,,0.0,4.0,2.0,0.0,4.0,4.0,50.0,,,,,,,,53.0,0.0,0.718146,0.045166000000000005,0.664795,0.200684,0.9487450000000001,-0.3252,-0.12109600000000001,-0.0286,-0.033079000000000004,-0.0054340000000000005,,,,,,,,,,,,,,,,,,,,,,,,,,,,,,,,,,,0.0,0.0,1.0,0.0,512.0,0.74353,,,,,,,,,,,,,,,,,,,,,,,,,
11708,1645900993.141176,1645900993.165446,107.0,0.0,4325.128418,4576.922852000001,4191.282227000001,4160.512695,4266.666504,16219.0,1.0,15.0,,,,0.0,4.0,2.0,0.0,4.0,4.0,50.0,,,,,,,,,,,,,,,,,,,,,,,,,,,,,,,,,,,,,,,,,,,,,,,,,,,,,,,,,,,,,,,,,,,,,,,,,,,,,,,,,,,,
11709,1645900993.1489902,1645900993.173261,108.0,0.0,4288.717772999999,4656.922852000001,4226.153809,4141.025879,4276.410156,450.0,1.0,15.0,,,,0.0,4.0,2.0,0.0,4.0,4.0,50.0,,,,,,,,54.0,0.0,0.718146,0.045166000000000005,0.664795,0.200684,0.947768,-0.340826,-0.11084200000000001,-0.025788,-0.032994,-0.007331999999999999,,,,,,,,,,,,,,,,,,,,,,,,,,,,,,,,,,,,,,,,,,,,,,,,,,,,,,,,,,,,,,,,,
11710,1645900993.156803,1645900993.181176,109.0,0.0,4296.410156,4637.436035,4216.922852000001,4180.512695,4287.179688,450.0,1.0,15.0,,,,0.0,4.0,2.0,0.0,4.0,4.0,50.0,,,,,,,,,,,,,,,,,,,,,,,,,,,,,,,,,,,,,,,,,,,,,,,,,,,,,,,,,,,,,,,,,,,,,,,,,,,,,,,,,,,,
11711,1645900993.164617,1645900993.18899,110.0,0.0,4317.94873,4570.769043,4196.922852000001,4191.282227000001,4293.846191,450.0,1.0,15.0,,,,0.0,4.0,2.0,0.0,4.0,4.0,50.0,,,,,,,,55.0,0.0,0.718146,0.045166000000000005,0.664795,0.200684,0.9399559999999999,-0.330571,-0.100587,-0.026432,-0.033063,-0.008990999999999999,,,,,,,,,,,,,,,,,,,,,,,,,,,,,,,,,,,0.0,0.0,1.0,0.0,512.0,0.74353,,,,,,,,,,,,,,,,,,,,,,,,,
11712,1645900993.17243,1645900993.196805,111.0,0.0,4295.384765999999,4525.641113000001,4174.871582,4157.94873,4275.384765999999,16219.0,1.0,15.0,,,,0.0,4.0,2.0,0.0,4.0,4.0,50.0,,,,,,,,,,,,,,,,,,,,,,,,,,,,,,,,,,,,,,,,,,,,,,,,,,,,,,,,,,,,,,,,,,,,,,,,,,,,,,,,,,,,
11713,1645900993.180244,1645900993.204619,112.0,0.0,4280.512695,4530.256348,4248.205078,4148.717772999999,4260.0,450.0,1.0,15.0,,,,0.0,4.0,2.0,0.0,4.0,4.0,50.0,,,,,,,,56.0,0.0,0.718078,0.045166000000000005,0.664795,0.200928,0.9365379999999999,-0.332036,-0.11084200000000001,-0.026864999999999997,-0.032882,-0.010485,,,,,,,,,,,,,,,,,,,,,,,,,,,,,,,,,,,,,,,,,,,,,,,,,,,,,,,,,,,,,,,,,
11714,1645900993.188058,1645900993.212434,113.0,0.0,4310.769043,4542.05127,4291.794922,4157.436035,4283.589844,450.0,1.0,15.0,,,,0.0,4.0,2.0,0.0,4.0,4.0,50.0,,,,,,,,,,,,,,,,,,,,,,,,,,,,,,,,,,,,,,,,,,,,,,,,,,,,,,,,,,,,,,,,,,,,,,,,,,,,,,,,,,,,
11715,1645900993.195871,1645900993.220249,114.0,0.0,4329.743652,4514.358886999999,4280.512695,4129.230957,4296.410156,450.0,1.0,15.0,,,,0.0,4.0,2.0,0.0,4.0,4.0,50.0,,,,,,,,57.0,0.0,0.718078,0.045166000000000005,0.664795,0.200928,0.95314,-0.336919,-0.11230599999999999,-0.027353,-0.032865,-0.011829000000000001,,,,,,,,,,,,,,,,,,,,,,,,,,,,,,,,,,,0.0,0.0,1.0,0.0,512.0,0.74353,,,,,,,,,,,,,,,,,,,,,,,,,
11716,1645900993.203685,1645900993.228063,115.0,0.0,4332.820313,4500.0,4262.563965,4132.820313,4281.538574,16219.0,1.0,15.0,,,,0.0,4.0,2.0,0.0,4.0,4.0,50.0,,,,,,,,,,,,,,,,,,,,,,,,,,,,,,,,,,,,,,,,,,,,,,,,,,,,,,,,,,,,,,,,,,,,,,,,,,,,,,,,,,,,
11717,1645900993.211498,1645900993.235878,116.0,0.0,4353.846191,4483.589844,4248.717772999999,4173.846191,4247.692383,450.0,1.0,15.0,,,,0.0,4.0,2.0,0.0,4.0,4.0,50.0,,,,,,,,58.0,0.0,0.718078,0.045166000000000005,0.664795,0.200928,0.929213,-0.342779,-0.10888800000000001,-0.027742000000000003,-0.032948000000000005,-0.009865,,,,,,,,,,,,,,,,,,,,,,,,,,,,,,,,,,,,,,,,,,,,,,,,,,,,,,,,,,,,,,,,,
11718,1645900993.219312,1645900993.2436929,117.0,0.0,4375.384765999999,4495.384765999999,4208.717772999999,4160.512695,4264.102539,450.0,1.0,15.0,,,,0.0,4.0,2.0,0.0,4.0,4.0,50.0,,,,,,,,,,,,,,,,,,,,,,,,,,,,,,,,,,,,,,,,,,,,,,,,,,,,,,,,,,,,,,,,,,,,,,,,,,,,,,,,,,,,
11719,1645900993.227126,1645900993.251507,118.0,0.0,4320.0,4549.230957,4245.641113000001,4135.384765999999,4292.820313,450.0,1.0,15.0,,,,0.0,4.0,2.0,0.0,4.0,4.0,50.0,,,,,,,,59.0,0.0,0.7183039999999999,0.045166000000000005,0.664551,0.200928,0.944839,-0.32959499999999997,-0.10888800000000001,-0.028191,-0.032925,-0.011222,1.0,0.0,0.0,,,,,,,,,,,,,,,,,,,,,,,,,,,,,,,,0.0,0.0,1.0,0.0,512.0,0.757051,2.284017,4.7953980000000005,3.4858849999999997,1.1570639999999999,1.1356700000000002,41.06279,50.986984,38.122135,26.980172999999997,15.674475,22.582294,46.936398,6.5478629999999995,7.586403999999999,5.748721,3.235909,5.5074559999999995,8.371395,5.693039,3.173321,2.8120439999999998,5.902039,0.9891989999999999,1.461885,2.134541
11720,1645900993.234939,1645900993.259422,119.0,0.0,4309.230957,4510.256348,4207.179688,4165.128418,4292.307617,16219.0,1.0,15.0,,,,0.0,4.0,2.0,0.0,4.0,4.0,50.0,,,,,,,,,,,,,,,,,,,,,,,,,,,,,,,,,,,,,,,,,,,,,,,,,,,,,,,,,,,,,,,,,,,,,,,,,,,,,,,,,,,,
11721,1645900993.242753,1645900993.267237,120.0,0.0,4369.743652,4466.153809,4141.025879,4125.641113000001,4301.538574,450.0,1.0,15.0,,,,0.0,4.0,2.0,0.0,4.0,4.0,50.0,,,,,,,,60.0,0.0,0.718372,0.045166000000000005,0.664551,0.200684,0.934585,-0.33105999999999997,-0.10888800000000001,-0.028546,-0.03305,-0.012444,,,,,,,,,,,,,,,,,,,,,,,,,,,,,,,,,,,,,,,,,,,,,,,,,,,,,,,,,,,,,,,,,
11722,1645900993.250566,1645900993.2750509,121.0,0.0,4367.179688,4490.256348,4229.230957,4097.94873,4322.05127,450.0,1.0,15.0,,,,0.0,4.0,2.0,0.0,4.0,4.0,50.0,,,,,,,,,,,,,,,,,,,,,,,,,,,,,,,,,,,,,,,,,,,,,,,,,,,,,,,,,,,,,,,,,,,,,,,,,,,,,,,,,,,,
11723,1645900993.2583802,1645900993.282866,122.0,0.0,4314.871582,4512.307617,4257.436035,4162.05127,4287.179688,450.0,1.0,15.0,,,,0.0,4.0,2.0,0.0,4.0,4.0,50.0,,,,,,,,61.0,0.0,0.718357,0.04541,0.664551,0.200684,0.938491,-0.345708,-0.118654,-0.028816,-0.033066000000000005,-0.013543000000000001,,,,,,,,,,,,,,,,,,,,,,,,,,,,,,,,,,,0.0,0.0,1.0,0.0,512.0,0.757051,,,,,,,,,,,,,,,,,,,,,,,,,
11724,1645900993.2661939,1645900993.2906802,123.0,0.0,4314.871582,4544.102539,4225.128418,4189.743652,4267.692383,16219.0,1.0,15.0,,,,0.0,4.0,2.0,0.0,4.0,4.0,50.0,,,,,,,,,,,,,,,,,,,,,,,,,,,,,,,,,,,,,,,,,,,,,,,,,,,,,,,,,,,,,,,,,,,,,,,,,,,,,,,,,,,,
11725,1645900993.274007,1645900993.2984948,124.0,0.0,4309.230957,4501.538574,4252.307617,4161.025879,4288.717772999999,450.0,1.0,15.0,,,,0.0,4.0,2.0,0.0,4.0,4.0,50.0,,,,,,,,62.0,0.0,0.718425,0.04541,0.664551,0.200439,0.9506979999999999,-0.343267,-0.109377,-0.025983,-0.033079000000000004,-0.011456000000000001,,,,,,,,,,,,,,,,,,,,,,,,,,,,,,,,,,,,,,,,,,,,,,,,,,,,,,,,,,,,,,,,,
11726,1645900993.281821,1645900993.30631,125.0,0.0,4285.128418,4429.230957,4263.077147999999,4164.615234000001,4285.641113000001,450.0,1.0,15.0,,,,0.0,4.0,2.0,0.0,4.0,4.0,50.0,,,,,,,,,,,,,,,,,,,,,,,,,,,,,,,,,,,,,,,,,,,,,,,,,,,,,,,,,,,,,,,,,,,,,,,,,,,,,,,,,,,,
11727,1645900993.289634,1645900993.314124,126.0,0.0,4293.846191,4428.205078,4209.743652,4156.410156,4276.922852000001,450.0,1.0,15.0,,,,0.0,4.0,2.0,0.0,4.0,4.0,50.0,,,,,,,,63.0,0.0,0.718425,0.04541,0.664551,0.200439,0.96144,-0.335454,-0.095216,-0.026608,-0.033092,-0.012703,,,,,,,,,,,,,,,,,,,,,,,,,,,,,,,,,,,0.0,0.0,1.0,0.0,512.0,0.757051,,,,,,,,,,,,,,,,,,,,,,,,,
11728,1645900993.2974482,1645900993.321939,127.0,0.0,4307.692383,4472.820313,4185.128418,4137.436035,4292.820313,233.0,1.0,15.0,,,,0.0,4.0,2.0,0.0,4.0,4.0,50.0,,,,,,,,,,,,,,,,,,,,,,,,,,,,,,,,,,,,,,,,,,,,,,,,,,,,,,,,,,,,,,,,,,,,,,,,,,,,,,,,,,,,
11729,1645900993.305261,1645900993.329854,0.0,0.0,4305.128418,4517.436035,4161.025879,4158.461426,4292.307617,450.0,1.0,15.0,,,,0.0,4.0,1.0,1.0,4.0,4.0,50.0,,,,,,,,0.0,0.0,0.718493,0.04541,0.664551,0.200195,0.945327,-0.348638,-0.10547000000000001,-0.027219,-0.033201,-0.013728,,,,,,,,,,,,,,,,,,,,,,,,,,,,,,,,,,,,,,,,,,,,,,,,,,,,,,,,,,,,,,,,,
11730,1645900993.313075,1645900993.337668,1.0,0.0,4280.0,4543.589844,4229.230957,4170.769043,4268.717772999999,450.0,1.0,15.0,,,,0.0,4.0,1.0,1.0,4.0,4.0,50.0,,,,,,,,,,,,,,,,,,,,,,,,,,,,,,,,,,,,,,,,,,,,,,,,,,,,,,,,,,,,,,,,,,,,,,,,,,,,,,,,,,,,
11731,1645900993.320889,1645900993.345483,2.0,0.0,4280.512695,4532.307617,4250.769043,4148.205078,4275.384765999999,16183.0,1.0,15.0,,,,0.0,4.0,1.0,1.0,4.0,4.0,50.0,,,,,,,,1.0,0.0,0.718508,0.045166000000000005,0.664551,0.200195,0.939467,-0.32959499999999997,-0.11572400000000001,-0.027670999999999998,-0.033201,-0.014747999999999999,,,,,,,,,,,,,,,,,,,,,,,,,,,,,,,,,,,0.0,0.0,1.0,0.0,512.0,0.757051,,,,,,,,,,,,,,,,,,,,,,,,,
11732,1645900993.328702,1645900993.353298,3.0,0.0,4302.05127,4530.769043,4240.512695,4112.820313,4298.461426,450.0,1.0,15.0,,,,0.0,4.0,1.0,1.0,4.0,4.0,50.0,,,,,,,,,,,,,,,,,,,,,,,,,,,,,,,,,,,,,,,,,,,,,,,,,,,,,,,,,,,,,,,,,,,,,,,,,,,,,,,,,,,,
11733,1645900993.336516,1645900993.3611119,4.0,0.0,4318.974121,4556.410156,4265.641113000001,4116.922852000001,4296.922852000001,127.0,1.0,15.0,,,,0.0,4.0,1.0,1.0,4.0,4.0,50.0,,,,,,,,2.0,0.0,0.718493,0.04541,0.664551,0.200195,0.949233,-0.32813000000000003,-0.109865,-0.028175,-0.03325,-0.012492,,,,,,,,,,,,,,,,,,,,,,,,,,,,,,,,,,,,,,,,,,,,,,,,,,,,,,,,,,,,,,,,,
11734,1645900993.3443289,1645900993.368927,5.0,0.0,4350.256348,4501.025879,4250.769043,4127.179688,4263.589844,450.0,1.0,15.0,,,,0.0,4.0,1.0,1.0,4.0,4.0,50.0,,,,,,,,,,,,,,,,,,,,,,,,,,,,,,,,,,,,,,,,,,,,,,,,,,,,,,,,,,,,,,,,,,,,,,,,,,,,,,,,,,,,
11735,1645900993.352143,1645900993.376741,6.0,0.0,4370.256348,4453.333496,4183.589844,4147.692383,4274.871582,92.0,1.0,15.0,,,,0.0,4.0,1.0,1.0,4.0,4.0,50.0,,,,,,,,3.0,0.0,0.718493,0.04541,0.664551,0.200195,0.936049,-0.339361,-0.120119,-0.025406,-0.033343,-0.013538,1.0,0.0,0.0,,,,,,,,,,,,,,,,,,,,,,,,,,,,,,,,0.0,0.0,1.0,0.0,512.0,0.5709850000000001,2.321242,4.360901,3.9278419999999996,1.392291,1.270167,50.281985999999996,50.393341,42.157505,28.619555,14.980782000000001,23.290851999999997,46.089371,8.656786,7.470812,5.827833,3.64295,6.791861999999999,10.04928,5.626775,3.28407,2.605909,5.219392,1.5851870000000001,1.5150190000000001,2.222326
11736,1645900993.359957,1645900993.384556,7.0,0.0,4320.0,4416.922852000001,4198.974121,4209.743652,4273.846191,450.0,1.0,15.0,,,,0.0,4.0,1.0,1.0,4.0,4.0,50.0,,,,,,,,,,,,,,,,,,,,,,,,,,,,,,,,,,,,,,,,,,,,,,,,,,,,,,,,,,,,,,,,,,,,,,,,,,,,,,,,,,,,
11737,1645900993.36777,1645900993.3923712,8.0,0.0,4310.256348,4389.743652,4194.358886999999,4223.589844,4257.436035,450.0,1.0,15.0,,,,0.0,4.0,1.0,1.0,4.0,4.0,50.0,,,,,,,,4.0,0.0,0.718493,0.04541,0.664551,0.200195,0.9463030000000001,-0.334478,-0.113283,-0.026039999999999997,-0.033280000000000004,-0.014478999999999999,,,,,,,,,,,,,,,,,,,,,,,,,,,,,,,,,,,,,,,,,,,,,,,,,,,,,,,,,,,,,,,,,
11738,1645900993.375584,1645900993.400285,9.0,0.0,4326.153809,4511.794922,4197.436035,4139.487305,4278.974121,16179.0,1.0,15.0,,,,0.0,4.0,1.0,1.0,4.0,4.0,50.0,,,,,,,,,,,,,,,,,,,,,,,,,,,,,,,,,,,,,,,,,,,,,,,,,,,,,,,,,,,,,,,,,,,,,,,,,,,,,,,,,,,,
11739,1645900993.383397,1645900993.4081,10.0,0.0,4299.487305,4551.282227000001,4263.589844,4128.205078,4277.94873,450.0,1.0,15.0,,,,0.0,4.0,1.0,1.0,4.0,4.0,50.0,,,,,,,,5.0,0.0,0.718493,0.04541,0.664551,0.200195,0.9550930000000001,-0.342779,-0.113283,-0.026706999999999998,-0.033273000000000004,-0.012201,,,,,,,,,,,,,,,,,,,,,,,,,,,,,,,,,,,0.0,0.0,1.0,0.0,512.0,0.5709850000000001,,,,,,,,,,,,,,,,,,,,,,,,,
11740,1645900993.391211,1645900993.415915,11.0,0.0,4303.077147999999,4394.358886999999,4198.974121,4160.512695,4230.769043,16217.0,1.0,15.0,,,,0.0,4.0,1.0,1.0,4.0,4.0,50.0,,,,,,,,,,,,,,,,,,,,,,,,,,,,,,,,,,,,,,,,,,,,,,,,,,,,,,,,,,,,,,,,,,,,,,,,,,,,,,,,,,,,
11741,1645900993.399025,1645900993.423729,12.0,0.0,4336.922852000001,4365.128418,4189.230957,4115.384765999999,4254.358886999999,450.0,1.0,15.0,,,,0.0,4.0,1.0,1.0,4.0,4.0,50.0,,,,,,,,6.0,0.0,0.718493,0.04541,0.664551,0.200195,0.941421,-0.334478,-0.11425999999999999,-0.02721,-0.033363,-0.010199,,,,,,,,,,,,,,,,,,,,,,,,,,,,,,,,,,,,,,,,,,,,,,,,,,,,,,,,,,,,,,,,,
11742,1645900993.4068382,1645900993.4315438,13.0,0.0,4320.512695,4440.512695,4270.256348,4097.94873,4291.282227000001,450.0,1.0,15.0,,,,0.0,4.0,1.0,1.0,4.0,4.0,50.0,,,,,,,,,,,,,,,,,,,,,,,,,,,,,,,,,,,,,,,,,,,,,,,,,,,,,,,,,,,,,,,,,,,,,,,,,,,,,,,,,,,,
11743,1645900993.4146519,1645900993.439359,14.0,0.0,4293.846191,4415.897461,4264.615234000001,4148.717772999999,4266.153809,450.0,1.0,15.0,,,,0.0,4.0,1.0,1.0,4.0,4.0,50.0,,,,,,,,7.0,0.0,0.718493,0.04541,0.664551,0.200195,0.9399559999999999,-0.33350100000000005,-0.101076,-0.027761,-0.033395999999999995,-0.011523,,,,,,,,,,,,,,,,,,,,,,,,,,,,,,,,,,,0.0,0.0,1.0,0.0,512.0,0.5709850000000001,,,,,,,,,,,,,,,,,,,,,,,,,
11744,1645900993.422465,1645900993.447173,15.0,0.0,4299.487305,4418.461426,4218.461426,4155.384765999999,4267.179688,16217.0,1.0,15.0,,,,0.0,4.0,1.0,1.0,4.0,4.0,50.0,,,,,,,,,,,,,,,,,,,,,,,,,,,,,,,,,,,,,,,,,,,,,,,,,,,,,,,,,,,,,,,,,,,,,,,,,,,,,,,,,,,,
11745,1645900993.430279,1645900993.454988,16.0,0.0,4309.230957,4456.410156,4232.307617,4134.358886999999,4294.871582,0.0,1.0,15.0,,,,0.0,4.0,1.0,1.0,4.0,4.0,50.0,,,,,,,,8.0,0.0,0.718493,0.04541,0.664551,0.200195,0.932143,-0.339361,-0.103029,-0.028158999999999997,-0.033327999999999997,-0.012666,,,,,,,,,,,,,,,,,,,,,,,,,,,,,,,,,,,,,,,,,,,,,,,,,,,,,,,,,,,,,,,,,
11746,1645900993.438093,1645900993.462802,17.0,0.0,4317.94873,4428.205078,4191.282227000001,4142.05127,4309.230957,0.0,1.0,15.0,,,,0.0,4.0,1.0,1.0,4.0,4.0,50.0,,,,,,,,,,,,,,,,,,,,,,,,,,,,,,,,,,,,,,,,,,,,,,,,,,,,,,,,,,,,,,,,,,,,,,,,,,,,,,,,,,,,
11747,1645900993.4459062,1645900993.470617,18.0,0.0,4302.563965,4437.94873,4222.563965,4146.153809,4306.666504,0.0,1.0,15.0,,,,0.0,4.0,1.0,1.0,4.0,4.0,50.0,,,,,,,,9.0,0.0,0.718719,0.04541,0.664307,0.200195,0.938491,-0.333013,-0.113771,-0.028564999999999997,-0.033365,-0.013743,,,,,,,,,,,,,,,,,,,,,,,,,,,,,,,,,,,0.0,0.0,1.0,0.0,512.0,0.5709850000000001,,,,,,,,,,,,,,,,,,,,,,,,,
11748,1645900993.4537199,1645900993.478532,19.0,0.0,4309.230957,4558.461426,4261.538574,4138.461426,4308.717772999999,0.0,1.0,15.0,,,,0.0,4.0,1.0,1.0,4.0,4.0,50.0,,,,,,,,,,,,,,,,,,,,,,,,,,,,,,,,,,,,,,,,,,,,,,,,,,,,,,,,,,,,,,,,,,,,,,,,,,,,,,,,,,,,
11749,1645900993.461533,1645900993.486346,20.0,0.0,4326.153809,4634.871582,4266.666504,4137.94873,4306.666504,0.0,1.0,15.0,,,,0.0,4.0,1.0,1.0,4.0,4.0,50.0,,,,,,,,10.0,0.0,0.718703,0.045654,0.664307,0.200195,0.9555809999999999,-0.335454,-0.11425999999999999,-0.028932,-0.033348,-0.011636,,,,,,,,,,,,,,,,,,,,,,,,,,,,,,,,,,,,,,,,,,,,,,,,,,,,,,,,,,,,,,,,,
11750,1645900993.469347,1645900993.494161,21.0,0.0,4332.307617,4545.641113000001,4256.922852000001,4154.358886999999,4300.512695,0.0,1.0,15.0,,,,0.0,4.0,1.0,1.0,4.0,4.0,50.0,,,,,,,,,,,,,,,,,,,,,,,,,,,,,,,,,,,,,,,,,,,,,,,,,,,,,,,,,,,,,,,,,,,,,,,,,,,,,,,,,,,,
11751,1645900993.477161,1645900993.501976,22.0,0.0,4347.692383,4480.0,4236.922852000001,4133.333496,4284.615234000001,0.0,1.0,15.0,,,,0.0,4.0,1.0,1.0,4.0,4.0,50.0,1.0,16.666666,4.0,0.0,0.0,2.0,3.0,11.0,0.0,0.718477,0.045654,0.664551,0.200195,0.9585110000000001,-0.335454,-0.11816600000000001,-0.029212000000000002,-0.033382999999999996,-0.012768,1.0,0.0,0.0,,,,,,,,,,,,,,,,,,,,,,,,,,,,,,,,0.0,0.0,1.0,0.0,512.0,0.666447,2.602502,4.356644,4.592353,1.68528,1.5552549999999998,57.76603299999999,47.510544,45.149174,31.153111,14.759966,23.890373,42.837746,12.074591,7.425806,5.897582,4.21644,7.723896000000001,11.398150999999999,5.332644,3.575154,2.716437,4.4718599999999995,2.555255,1.618477,2.297211
11752,1645900993.484974,1645900993.50979,23.0,0.0,4348.205078,4522.563965,4213.846191,4130.256348,4291.282227000001,0.0,1.0,15.0,,,,0.0,4.0,1.0,1.0,4.0,4.0,50.0,,,,,,,,,,,,,,,,,,,,,,,,,,,,,,,,,,,,,,,,,,,,,,,,,,,,,,,,,,,,,,,,,,,,,,,,,,,,,,,,,,,,
11753,1645900993.492788,1645900993.517605,24.0,0.0,4305.641113000001,4446.666504,4197.436035,4181.538574,4258.461426,0.0,1.0,15.0,,,,0.0,4.0,1.0,1.0,4.0,4.0,50.0,,,,,,,,12.0,0.0,0.718719,0.04541,0.664307,0.200195,0.938491,-0.333013,-0.113771,-0.029514,-0.033414,-0.013835,,,,,,,,,,,,,,,,,,,,,,,,,,,,,,,,,,,,,,,,,,,,,,,,,,,,,,,,,,,,,,,,,
11754,1645900993.500601,1645900993.52542,25.0,0.0,4316.410156,4325.128418,4162.563965,4197.436035,4235.384765999999,0.0,1.0,15.0,,,,0.0,4.0,1.0,1.0,4.0,4.0,50.0,,,,,,,,,,,,,,,,,,,,,,,,,,,,,,,,,,,,,,,,,,,,,,,,,,,,,,,,,,,,,,,,,,,,,,,,,,,,,,,,,,,,
11755,1645900993.508415,1645900993.533234,26.0,0.0,4331.794922,4401.025879,4190.769043,4145.641113000001,4280.0,0.0,1.0,15.0,,,,0.0,4.0,1.0,1.0,4.0,4.0,50.0,,,,,,,,13.0,0.0,0.718477,0.045654,0.664551,0.200195,0.9585110000000001,-0.335454,-0.11816600000000001,-0.029736000000000002,-0.033442,-0.014746,,,,,,,,,,,,,,,,,,,,,,,,,,,,,,,,,,,0.0,0.0,1.0,0.0,512.0,0.666447,,,,,,,,,,,,,,,,,,,,,,,,,
11756,1645900993.516229,1645900993.541049,27.0,0.0,4314.871582,4544.615234000001,4256.922852000001,4132.307617,4287.692383,0.0,1.0,15.0,,,,0.0,4.0,1.0,1.0,4.0,4.0,50.0,,,,,,,,,,,,,,,,,,,,,,,,,,,,,,,,,,,,,,,,,,,,,,,,,,,,,,,,,,,,,,,,,,,,,,,,,,,,,,,,,,,,
11757,1645900993.524042,1645900993.548963,28.0,0.0,4317.94873,4558.974121,4216.922852000001,4133.333496,4248.205078,0.0,1.0,15.0,,,,0.0,4.0,1.0,1.0,4.0,4.0,50.0,,,,,,,,14.0,0.0,0.718409,0.045654,0.664551,0.200439,0.9506979999999999,-0.33350100000000005,-0.1084,-0.029887999999999998,-0.033467000000000004,-0.015615,,,,,,,,,,,,,,,,,,,,,,,,,,,,,,,,,,,,,,,,,,,,,,,,,,,,,,,,,,,,,,,,,
11758,1645900993.531856,1645900993.556778,29.0,0.0,4315.897461,4521.538574,4219.487305,4118.974121,4257.94873,0.0,1.0,15.0,,,,0.0,4.0,1.0,1.0,4.0,4.0,50.0,,,,,,,,,,,,,,,,,,,,,,,,,,,,,,,,,,,,,,,,,,,,,,,,,,,,,,,,,,,,,,,,,,,,,,,,,,,,,,,,,,,,
11759,1645900993.539669,1645900993.564593,30.0,0.0,4294.871582,4471.794922,4231.282227000001,4124.102539,4265.641113000001,0.0,1.0,15.0,,,,0.0,4.0,1.0,1.0,4.0,4.0,50.0,,,,,,,,15.0,0.0,0.718409,0.045654,0.664551,0.200439,0.9389790000000001,-0.338872,-0.114748,-0.029878,-0.033489,-0.016446000000000002,,,,,,,,,,,,,,,,,,,,,,,,,,,,,,,,,,,0.0,0.0,1.0,0.0,512.0,0.666447,,,,,,,,,,,,,,,,,,,,,,,,,
11760,1645900993.547483,1645900993.572407,31.0,0.0,4313.846191,4455.897461,4218.974121,4135.897461,4251.282227000001,0.0,1.0,15.0,,,,0.0,4.0,1.0,1.0,4.0,4.0,50.0,,,,,,,,,,,,,,,,,,,,,,,,,,,,,,,,,,,,,,,,,,,,,,,,,,,,,,,,,,,,,,,,,,,,,,,,,,,,,,,,,,,,
11761,1645900993.5552971,1645900993.5802221,32.0,0.0,4348.205078,4491.282227000001,4215.897461,4154.358886999999,4273.846191,0.0,1.0,15.0,,,,0.0,4.0,1.0,1.0,4.0,4.0,50.0,,,,,,,,16.0,0.0,0.718326,0.045898,0.664551,0.200684,0.9399559999999999,-0.33789600000000003,-0.121584,-0.029966000000000003,-0.033461000000000005,-0.017097,,,,,,,,,,,,,,,,,,,,,,,,,,,,,,,,,,,,,,,,,,,,,,,,,,,,,,,,,,,,,,,,,
11762,1645900993.5631099,1645900993.588037,33.0,0.0,4342.05127,4516.410156,4273.846191,4191.282227000001,4290.256348,0.0,1.0,15.0,,,,0.0,4.0,1.0,1.0,4.0,4.0,50.0,,,,,,,,,,,,,,,,,,,,,,,,,,,,,,,,,,,,,,,,,,,,,,,,,,,,,,,,,,,,,,,,,,,,,,,,,,,,,,,,,,,,
11763,1645900993.570924,1645900993.595851,34.0,0.0,4338.974121,4494.358886999999,4277.94873,4213.333496,4262.563965,0.0,1.0,15.0,,,,0.0,4.0,1.0,1.0,4.0,4.0,50.0,,,,,,,,17.0,0.0,0.718326,0.045898,0.664551,0.200684,0.9463030000000001,-0.334966,-0.097169,-0.027018,-0.033435,-0.014703,,,,,,,,,,,,,,,,,,,,,,,,,,,,,,,,,,,0.0,0.0,1.0,0.0,512.0,0.666447,,,,,,,,,,,,,,,,,,,,,,,,,
11764,1645900993.578737,1645900993.603666,35.0,0.0,4349.743652,4466.153809,4258.461426,4183.077147999999,4240.512695,0.0,1.0,15.0,,,,0.0,4.0,1.0,1.0,4.0,4.0,50.0,,,,,,,,,,,,,,,,,,,,,,,,,,,,,,,,,,,,,,,,,,,,,,,,,,,,,,,,,,,,,,,,,,,,,,,,,,,,,,,,,,,,
11765,1645900993.586551,1645900993.611481,36.0,0.0,4349.230957,4494.871582,4232.820313,4155.384765999999,4263.589844,0.0,1.0,15.0,,,,0.0,4.0,1.0,1.0,4.0,4.0,50.0,,,,,,,,18.0,0.0,0.718341,0.045654,0.664551,0.200684,0.934585,-0.335943,-0.11425999999999999,-0.027489999999999997,-0.033461000000000005,-0.015675,,,,,,,,,,,,,,,,,,,,,,,,,,,,,,,,,,,,,,,,,,,,,,,,,,,,,,,,,,,,,,,,,
11766,1645900993.5943651,1645900993.619295,37.0,0.0,4322.563965,4490.256348,4232.820313,4170.769043,4254.358886999999,0.0,1.0,15.0,,,,0.0,4.0,1.0,1.0,4.0,4.0,50.0,,,,,,,,,,,,,,,,,,,,,,,,,,,,,,,,,,,,,,,,,,,,,,,,,,,,,,,,,,,,,,,,,,,,,,,,,,,,,,,,,,,,
11767,1645900993.6021779,1645900993.62721,38.0,0.0,4326.666504,4480.0,4200.512695,4188.205078,4248.205078,0.0,1.0,15.0,,,,0.0,4.0,1.0,1.0,4.0,4.0,50.0,,,,,,,,19.0,0.0,0.718115,0.045654,0.664795,0.200684,0.941909,-0.344244,-0.11523599999999999,-0.028062,-0.033435,-0.016402,1.0,0.0,0.0,,,,,,,,,,,,,,,,,,,,,,,,,,,,,,,,0.0,0.0,1.0,0.0,512.0,0.9394129999999999,3.156471,4.966443,5.358906,1.999261,1.9402099999999998,61.629677,43.469734,47.027367,33.298859,14.940254000000001,24.472103,37.242847,16.454483,7.562067999999999,5.854825,4.920137,8.180246,11.967383,4.936714,3.9625559999999997,2.9598400000000002,3.907113,3.8217830000000004,1.734161,2.313792
11768,1645900993.609992,1645900993.635024,39.0,0.0,4312.307617,4572.307617,4195.897461,4148.205078,4280.512695,0.0,1.0,15.0,,,,0.0,4.0,1.0,1.0,4.0,4.0,50.0,,,,,,,,,,,,,,,,,,,,,,,,,,,,,,,,,,,,,,,,,,,,,,,,,,,,,,,,,,,,,,,,,,,,,,,,,,,,,,,,,,,,
11769,1645900993.617805,1645900993.642839,40.0,0.0,4291.282227000001,4575.384765999999,4217.94873,4135.384765999999,4288.205078,0.0,1.0,15.0,,,,0.0,4.0,1.0,1.0,4.0,4.0,50.0,,,,,,,,20.0,0.0,0.718047,0.045654,0.664795,0.200928,0.949722,-0.340337,-0.111818,-0.028332,-0.033461000000000005,-0.013981,,,,,,,,,,,,,,,,,,,,,,,,,,,,,,,,,,,,,,,,,,,,,,,,,,,,,,,,,,,,,,,,,
11770,1645900993.625619,1645900993.650754,41.0,0.0,4328.717772999999,4466.666504,4170.769043,4145.128418,4249.743652,0.0,1.0,15.0,,,,0.0,4.0,1.0,1.0,4.0,4.0,50.0,,,,,,,,,,,,,,,,,,,,,,,,,,,,,,,,,,,,,,,,,,,,,,,,,,,,,,,,,,,,,,,,,,,,,,,,,,,,,,,,,,,,
11771,1645900993.633433,1645900993.658568,42.0,0.0,4357.436035,4479.487305,4177.436035,4160.0,4269.230957,0.0,1.0,15.0,,,,0.0,4.0,1.0,1.0,4.0,4.0,50.0,,,,,,,,21.0,0.0,0.718115,0.045654,0.664795,0.200684,0.9433739999999999,-0.339361,-0.10888800000000001,-0.025547,-0.033484,-0.014877000000000001,,,,,,,,,,,,,,,,,,,,,,,,,,,,,,,,,,,0.0,0.0,1.0,0.0,512.0,0.9394129999999999,,,,,,,,,,,,,,,,,,,,,,,,,
11772,1645900993.641246,1645900993.666483,43.0,0.0,4308.717772999999,4532.307617,4225.128418,4188.717772999999,4285.128418,0.0,1.0,15.0,,,,0.0,4.0,1.0,1.0,4.0,4.0,50.0,,,,,,,,,,,,,,,,,,,,,,,,,,,,,,,,,,,,,,,,,,,,,,,,,,,,,,,,,,,,,,,,,,,,,,,,,,,,,,,,,,,,
11773,1645900993.64906,1645900993.674297,44.0,0.0,4304.615234000001,4469.230957,4213.333496,4192.820313,4262.05127,0.0,1.0,15.0,,,,0.0,4.0,1.0,1.0,4.0,4.0,50.0,,,,,,,,22.0,0.0,0.718062,0.04541,0.664795,0.200928,0.949722,-0.34815,-0.11084200000000001,-0.026215,-0.033602,-0.015782,,,,,,,,,,,,,,,,,,,,,,,,,,,,,,,,,,,,,,,,,,,,,,,,,,,,,,,,,,,,,,,,,
11774,1645900993.656873,1645900993.6822119,45.0,0.0,4343.589844,4422.563965,4219.487305,4164.615234000001,4279.487305,0.0,1.0,15.0,,,,0.0,4.0,1.0,1.0,4.0,4.0,50.0,,,,,,,,,,,,,,,,,,,,,,,,,,,,,,,,,,,,,,,,,,,,,,,,,,,,,,,,,,,,,,,,,,,,,,,,,,,,,,,,,,,,
11775,1645900993.664687,1645900993.690027,46.0,0.0,4318.461426,4465.641113000001,4292.820313,4148.205078,4289.743652,0.0,1.0,15.0,,,,0.0,4.0,1.0,1.0,4.0,4.0,50.0,,,,,,,,23.0,0.0,0.718115,0.045654,0.664795,0.200684,0.947768,-0.346197,-0.1084,-0.026768,-0.033611,-0.013423,,,,,,,,,,,,,,,,,,,,,,,,,,,,,,,,,,,0.0,0.0,1.0,0.0,512.0,0.9394129999999999,,,,,,,,,,,,,,,,,,,,,,,,,
11776,1645900993.6725,1645900993.697841,47.0,0.0,4285.128418,4459.487305,4279.487305,4142.563965,4257.436035,0.0,1.0,15.0,,,,0.0,4.0,1.0,1.0,4.0,4.0,50.0,,,,,,,,,,,,,,,,,,,,,,,,,,,,,,,,,,,,,,,,,,,,,,,,,,,,,,,,,,,,,,,,,,,,,,,,,,,,,,,,,,,,
11777,1645900993.680314,1645900993.705656,48.0,0.0,4290.256348,4391.282227000001,4257.436035,4158.974121,4256.922852000001,0.0,1.0,15.0,,,,0.0,4.0,1.0,1.0,4.0,4.0,50.0,,,,,,,,24.0,0.0,0.718115,0.045654,0.664795,0.200684,0.941909,-0.341314,-0.113771,-0.027167,-0.033569999999999996,-0.014376,,,,,,,,,,,,,,,,,,,,,,,,,,,,,,,,,,,,,,,,,,,,,,,,,,,,,,,,,,,,,,,,,
11778,1645900993.688128,1645900993.7135699,49.0,0.0,4310.256348,4437.94873,4216.922852000001,4177.436035,4290.256348,0.0,1.0,15.0,,,,0.0,4.0,1.0,1.0,4.0,4.0,50.0,,,,,,,,,,,,,,,,,,,,,,,,,,,,,,,,,,,,,,,,,,,,,,,,,,,,,,,,,,,,,,,,,,,,,,,,,,,,,,,,,,,,
11779,1645900993.695941,1645900993.721385,50.0,1.0,4310.769043,4450.128418,4220.641113000001,4177.179688,4291.025879,0.0,1.0,15.0,,,,0.0,4.0,1.0,1.0,4.0,4.0,50.0,,,,,,,,25.0,1.0,0.718118,0.045605,0.664795,0.200684,0.9404440000000001,-0.340142,-0.11240399999999999,-0.027259,-0.033573,-0.014556999999999999,,,,,,,,,,,,,,,,,,,,,,,,,,,,,,,,,,,0.0,0.0,1.0,0.0,512.0,0.9394129999999999,,,,,,,,,,,,,,,,,,,,,,,,,
11780,1645900993.7037551,1645900993.7292,51.0,1.0,4311.282227000001,4462.307617,4224.358886999999,4176.922852000001,4291.794922,0.0,1.0,15.0,,,,0.0,4.0,1.0,1.0,4.0,4.0,50.0,,,,,,,,,,,,,,,,,,,,,,,,,,,,,,,,,,,,,,,,,,,,,,,,,,,,,,,,,,,,,,,,,,,,,,,,,,,,,,,,,,,,
11781,1645900993.7115679,1645900993.737014,52.0,1.0,4311.794922,4474.487305,4228.077147999999,4176.666504,4292.563965,0.0,1.0,15.0,,,,0.0,4.0,1.0,1.0,4.0,4.0,50.0,,,,,,,,26.0,1.0,0.718121,0.045557,0.664795,0.200684,0.9389790000000001,-0.33897,-0.11103699999999998,-0.02735,-0.033575,-0.014738,,,,,,,,,,,,,,,,,,,,,,,,,,,,,,,,,,,,,,,,,,,,,,,,,,,,,,,,,,,,,,,,,
11782,1645900993.719382,1645900993.744829,53.0,1.0,4312.307617,4486.666504,4231.794922,4176.410156,4293.333496,0.0,1.0,15.0,,,,0.0,4.0,1.0,1.0,4.0,4.0,50.0,,,,,,,,,,,,,,,,,,,,,,,,,,,,,,,,,,,,,,,,,,,,,,,,,,,,,,,,,,,,,,,,,,,,,,,,,,,,,,,,,,,,
11783,1645900993.727196,1645900993.752644,54.0,1.0,4312.820313,4498.846191,4235.512695,4176.153809,4294.102539,0.0,1.0,15.0,,,,0.0,4.0,1.0,1.0,4.0,4.0,50.0,,,,,,,,27.0,1.0,0.718125,0.045508,0.664795,0.200684,0.937514,-0.337798,-0.10967,-0.027441000000000004,-0.033578,-0.014919,1.0,0.0,0.0,,,,,,,,,,,,,,,,,,,,,,,,,,,,,,,,0.0,0.0,1.0,0.0,512.0,0.883582,3.973612,6.213983,5.966751,2.3119389999999997,2.344589,60.381668000000005,38.943867,48.242119,33.951283000000004,15.401467000000002,24.819353,30.008396,21.139631,7.946549,5.70947,5.566,8.307487,11.744515,4.608715,4.343505,3.198375,3.698528,5.1531519999999995,1.824456,2.2666
11784,1645900993.735009,1645900993.760458,55.0,1.0,4313.333496,4511.025879,4239.230957,4175.897461,4294.871582,0.0,1.0,15.0,,,,0.0,4.0,1.0,1.0,4.0,4.0,50.0,,,,,,,,,,,,,,,,,,,,,,,,,,,,,,,,,,,,,,,,,,,,,,,,,,,,,,,,,,,,,,,,,,,,,,,,,,,,,,,,,,,,
11785,1645900993.7428231,1645900993.768273,56.0,1.0,4313.846191,4523.205078,4242.94873,4175.641113000001,4295.641113000001,0.0,1.0,15.0,,,,0.0,4.0,1.0,1.0,4.0,4.0,50.0,,,,,,,,28.0,1.0,0.718128,0.045459,0.664795,0.200684,0.936049,-0.33662600000000004,-0.108302,-0.027533,-0.03358,-0.015101,,,,,,,,,,,,,,,,,,,,,,,,,,,,,,,,,,,,,,,,,,,,,,,,,,,,,,,,,,,,,,,,,
11786,1645900993.7506359,1645900993.776088,57.0,0.0,4314.358886999999,4535.384765999999,4246.666504,4175.384765999999,4296.410156,0.0,1.0,15.0,,,,0.0,4.0,1.0,1.0,4.0,4.0,50.0,,,,,,,,,,,,,,,,,,,,,,,,,,,,,,,,,,,,,,,,,,,,,,,,,,,,,,,,,,,,,,,,,,,,,,,,,,,,,,,,,,,,
11787,1645900993.75845,1645900993.783802,58.0,0.0,4323.589844,4495.897461,4218.974121,4144.615234000001,4267.692383,0.0,1.0,15.0,,,,0.0,4.0,1.0,1.0,4.0,4.0,50.0,,,,,,,,29.0,0.0,0.7181310000000001,0.04541,0.664795,0.200684,0.934585,-0.335454,-0.10693499999999999,-0.027624,-0.033583,-0.015281999999999999,,,,,,,,,,,,,,,,,,,,,,,,,,,,,,,,,,,0.0,0.0,1.0,0.0,512.0,0.883582,,,,,,,,,,,,,,,,,,,,,,,,,
11788,1645900993.766264,1645900993.791616,59.0,0.0,4346.153809,4501.538574,4212.307617,4129.230957,4274.871582,0.0,1.0,15.0,,,,0.0,4.0,1.0,1.0,4.0,4.0,50.0,,,,,,,,,,,,,,,,,,,,,,,,,,,,,,,,,,,,,,,,,,,,,,,,,,,,,,,,,,,,,,,,,,,,,,,,,,,,,,,,,,,,
11789,1645900993.774077,1645900993.799431,60.0,0.0,4308.717772999999,4463.589844,4235.384765999999,4133.333496,4272.307617,0.0,1.0,15.0,,,,0.0,4.0,1.0,1.0,4.0,4.0,50.0,,,,,,,,30.0,0.0,0.7181310000000001,0.04541,0.664795,0.200684,0.9428850000000001,-0.335454,-0.10498199999999999,-0.028036000000000002,-0.033593,-0.016097,,,,,,,,,,,,,,,,,,,,,,,,,,,,,,,,,,,,,,,,,,,,,,,,,,,,,,,,,,,,,,,,,
11790,1645900993.781891,1645900993.807245,61.0,0.0,4303.077147999999,4413.333496,4222.05127,4122.563965,4245.128418,0.0,1.0,15.0,,,,0.0,4.0,1.0,1.0,4.0,4.0,50.0,,,,,,,,,,,,,,,,,,,,,,,,,,,,,,,,,,,,,,,,,,,,,,,,,,,,,,,,,,,,,,,,,,,,,,,,,,,,,,,,,,,,
11791,1645900993.7897038,1645900993.81506,62.0,0.0,4333.333496,4454.871582,4212.307617,4123.589844,4258.461426,0.0,1.0,15.0,,,,0.0,4.0,1.0,1.0,4.0,4.0,50.0,,,,,,,,31.0,0.0,0.7181310000000001,0.04541,0.664795,0.200684,0.941909,-0.333989,-0.10547000000000001,-0.028406,-0.033555,-0.016783000000000003,,,,,,,,,,,,,,,,,,,,,,,,,,,,,,,,,,,0.0,0.0,1.0,0.0,512.0,0.883582,,,,,,,,,,,,,,,,,,,,,,,,,
11792,1645900993.797518,1645900993.822874,63.0,0.0,4317.436035,4565.128418,4305.641113000001,4150.769043,4280.512695,0.0,1.0,15.0,,,,0.0,4.0,1.0,1.0,4.0,4.0,50.0,,,,,,,,,,,,,,,,,,,,,,,,,,,,,,,,,,,,,,,,,,,,,,,,,,,,,,,,,,,,,,,,,,,,,,,,,,,,,,,,,,,,
11793,1645900993.805332,1645900993.830689,64.0,0.0,4312.820313,4593.846191,4315.384765999999,4164.102539,4253.333496,450.0,1.0,15.0,,,,0.0,4.0,1.0,1.0,4.0,4.0,50.0,,,,,,,,32.0,0.0,0.7181310000000001,0.04541,0.664795,0.200684,0.944839,-0.334966,-0.11035299999999999,-0.028689999999999997,-0.033471,-0.017447999999999998,,,,,,,,,,,,,,,,,,,,,,,,,,,,,,,,,,,,,,,,,,,,,,,,,,,,,,,,,,,,,,,,,
11794,1645900993.813145,1645900993.838403,65.0,0.0,4336.922852000001,4493.333496,4240.512695,4158.974121,4217.94873,450.0,1.0,15.0,,,,0.0,4.0,1.0,4.0,4.0,4.0,75.0,,,,,,,,,,,,,,,,,,,,,,,,,,,,,,,,,,,,,,,,,,,,,,,,,,,,,,,,,,,,,,,,,,,,,,,,,,,,,,,,,,,,
11795,1645900993.820959,1645900993.846217,66.0,0.0,4331.282227000001,4441.538574,4216.922852000001,4167.179688,4248.717772999999,16155.0,1.0,15.0,,,,0.0,4.0,1.0,4.0,4.0,4.0,75.0,,,,,,,,33.0,0.0,0.718115,0.045654,0.664795,0.200684,0.941909,-0.340826,-0.11230599999999999,-0.028946,-0.033444,-0.017949,,,,,,,,,,,,,,,,,,,,,,,,,,,,,,,,,,,0.0,0.0,1.0,0.0,512.0,0.883582,,,,,,,,,,,,,,,,,,,,,,,,,
11796,1645900993.828772,1645900993.854032,67.0,0.0,4298.974121,4506.666504,4282.05127,4161.025879,4281.025879,450.0,1.0,15.0,,,,0.0,4.0,1.0,4.0,4.0,4.0,75.0,,,,,,,,,,,,,,,,,,,,,,,,,,,,,,,,,,,,,,,,,,,,,,,,,,,,,,,,,,,,,,,,,,,,,,,,,,,,,,,,,,,,
11797,1645900993.836586,1645900993.8618462,68.0,0.0,4318.974121,4550.256348,4222.563965,4140.512695,4281.025879,88.0,1.0,15.0,,,,0.0,4.0,1.0,4.0,4.0,4.0,75.0,,,,,,,,34.0,0.0,0.718115,0.045654,0.664795,0.200684,0.9399559999999999,-0.321782,-0.11230599999999999,-0.029275,-0.033371,-0.015276,,,,,,,,,,,,,,,,,,,,,,,,,,,,,,,,,,,,,,,,,,,,,,,,,,,,,,,,,,,,,,,,,
11798,1645900993.8444,1645900993.8696609,69.0,0.0,4347.692383,4529.230957,4188.205078,4123.077147999999,4284.102539,450.0,1.0,15.0,,,,0.0,4.0,1.0,4.0,4.0,4.0,75.0,,,,,,,,,,,,,,,,,,,,,,,,,,,,,,,,,,,,,,,,,,,,,,,,,,,,,,,,,,,,,,,,,,,,,,,,,,,,,,,,,,,,
11799,1645900993.8522131,1645900993.877475,70.0,0.0,4342.05127,4489.230957,4263.077147999999,4131.794922,4291.282227000001,16121.0,1.0,15.0,,,,0.0,4.0,1.0,4.0,4.0,4.0,75.0,,,,,,,,35.0,0.0,0.717889,0.045654,0.665039,0.200684,0.95314,-0.319829,-0.11572400000000001,-0.026396,-0.03355,-0.016141,1.0,0.0,0.0,,,,,,,,,,,,,,,,,,,,,,,,,,,,,,,,0.0,0.0,1.0,0.0,512.0,0.950219,4.962231,7.873286,6.166826,2.6075939999999997,2.68304,55.410084,34.394382,49.609535,32.703106,16.016867,24.512117,22.418678,25.22496,8.528998,5.518107,5.920619,8.301549000000001,11.090209,4.465981,4.626415,3.4827120000000003,3.831661,6.188969,1.868482,2.189718
11800,1645900993.8600268,1645900993.885289,71.0,0.0,4325.641113000001,4504.102539,4254.871582,4122.563965,4267.692383,450.0,1.0,15.0,,,,0.0,4.0,1.0,4.0,4.0,4.0,75.0,,,,,,,,,,,,,,,,,,,,,,,,,,,,,,,,,,,,,,,,,,,,,,,,,,,,,,,,,,,,,,,,,,,,,,,,,,,,,,,,,,,,
11801,1645900993.86784,1645900993.8931038,72.0,0.0,4332.820313,4565.128418,4198.461426,4121.025879,4274.871582,450.0,1.0,15.0,,,,0.0,4.0,1.0,4.0,4.0,4.0,75.0,,,,,,,,36.0,0.0,0.717889,0.045654,0.665039,0.200684,0.9433739999999999,-0.337407,-0.11230599999999999,-0.026881,-0.033514999999999996,-0.016773,,,,,,,,,,,,,,,,,,,,,,,,,,,,,,,,,,,,,,,,,,,,,,,,,,,,,,,,,,,,,,,,,
11802,1645900993.875654,1645900993.900918,73.0,0.0,4320.0,4488.205078,4234.358886999999,4156.410156,4274.358886999999,16178.0,1.0,15.0,,,,0.0,4.0,1.0,4.0,4.0,4.0,75.0,,,,,,,,,,,,,,,,,,,,,,,,,,,,,,,,,,,,,,,,,,,,,,,,,,,,,,,,,,,,,,,,,,,,,,,,,,,,,,,,,,,,
11803,1645900993.883468,1645900993.908633,74.0,0.0,4321.025879,4393.846191,4245.128418,4165.641113000001,4264.615234000001,450.0,1.0,15.0,,,,0.0,4.0,1.0,4.0,4.0,4.0,75.0,,,,,,,,37.0,0.0,0.7178359999999999,0.04541,0.665039,0.200928,0.945815,-0.332525,-0.112795,-0.027318000000000002,-0.033484,-0.014313999999999999,,,,,,,,,,,,,,,,,,,,,,,,,,,,,,,,,,,0.0,0.0,1.0,0.0,512.0,0.950219,,,,,,,,,,,,,,,,,,,,,,,,,
11804,1645900993.8912811,1645900993.9164472,75.0,0.0,4318.461426,4476.922852000001,4193.846191,4137.94873,4280.512695,16188.0,1.0,15.0,,,,0.0,4.0,1.0,4.0,4.0,4.0,75.0,,,,,,,,,,,,,,,,,,,,,,,,,,,,,,,,,,,,,,,,,,,,,,,,,,,,,,,,,,,,,,,,,,,,,,,,,,,,,,,,,,,,
11805,1645900993.8990948,1645900993.9242618,76.0,0.0,4289.743652,4554.358886999999,4231.282227000001,4153.333496,4277.94873,450.0,1.0,15.0,,,,0.0,4.0,1.0,4.0,4.0,4.0,75.0,,,,,,,,38.0,0.0,0.7178359999999999,0.04541,0.665039,0.200928,0.9423969999999999,-0.32959499999999997,-0.109865,-0.027760000000000003,-0.033407,-0.01215,,,,,,,,,,,,,,,,,,,,,,,,,,,,,,,,,,,,,,,,,,,,,,,,,,,,,,,,,,,,,,,,,
11806,1645900993.906908,1645900993.932076,77.0,0.0,4285.128418,4490.256348,4265.128418,4146.666504,4255.384765999999,450.0,1.0,15.0,,,,0.0,4.0,1.0,4.0,4.0,4.0,75.0,,,,,,,,,,,,,,,,,,,,,,,,,,,,,,,,,,,,,,,,,,,,,,,,,,,,,,,,,,,,,,,,,,,,,,,,,,,,,,,,,,,,
11807,1645900993.914722,1645900993.9398901,78.0,0.0,4303.589844,4442.563965,4263.077147999999,4109.743652,4270.256348,450.0,1.0,15.0,,,,0.0,4.0,1.0,4.0,4.0,4.0,75.0,,,,,,,,39.0,0.0,0.717852,0.045166000000000005,0.665039,0.200928,0.941909,-0.330571,-0.107424,-0.025033,-0.033436,-0.013328,,,,,,,,,,,,,,,,,,,,,,,,,,,,,,,,,,,0.0,0.0,1.0,0.0,512.0,0.950219,,,,,,,,,,,,,,,,,,,,,,,,,
11808,1645900993.922536,1645900993.947705,79.0,0.0,4311.282227000001,4484.102539,4224.102539,4127.179688,4286.666504,16188.0,1.0,15.0,,,,0.0,4.0,1.0,4.0,4.0,4.0,75.0,,,,,,,,,,,,,,,,,,,,,,,,,,,,,,,,,,,,,,,,,,,,,,,,,,,,,,,,,,,,,,,,,,,,,,,,,,,,,,,,,,,,
11809,1645900993.930349,1645900993.955519,80.0,0.0,4296.410156,4494.358886999999,4271.282227000001,4145.128418,4282.563965,450.0,1.0,15.0,,,,0.0,4.0,1.0,4.0,4.0,4.0,75.0,,,,,,,,40.0,0.0,0.7178359999999999,0.04541,0.665039,0.200928,0.945815,-0.332525,-0.112795,-0.025704,-0.033363,-0.011214,,,,,,,,,,,,,,,,,,,,,,,,,,,,,,,,,,,,,,,,,,,,,,,,,,,,,,,,,,,,,,,,,
11810,1645900993.938163,1645900993.963334,81.0,0.0,4300.0,4444.615234000001,4302.05127,4103.589844,4283.077147999999,450.0,1.0,15.0,,,,0.0,4.0,1.0,4.0,4.0,4.0,75.0,,,,,,,,,,,,,,,,,,,,,,,,,,,,,,,,,,,,,,,,,,,,,,,,,,,,,,,,,,,,,,,,,,,,,,,,,,,,,,,,,,,,
11811,1645900993.945976,1645900993.971148,82.0,0.0,4329.230957,4435.384765999999,4257.436035,4081.025635,4270.769043,450.0,1.0,15.0,,,,0.0,4.0,1.0,4.0,4.0,4.0,75.0,,,,,,,,41.0,0.0,0.717852,0.045166000000000005,0.665039,0.200928,0.941909,-0.330571,-0.107424,-0.023181999999999998,-0.033395999999999995,-0.012485,,,,,,,,,,,,,,,,,,,,,,,,,,,,,,,,,,,0.0,0.0,1.0,0.0,512.0,0.950219,,,,,,,,,,,,,,,,,,,,,,,,,
11812,1645900993.95379,1645900993.978962,83.0,0.0,4351.282227000001,4476.922852000001,4219.487305,4136.410156,4270.256348,16188.0,1.0,15.0,,,,0.0,4.0,1.0,4.0,4.0,4.0,75.0,,,,,,,,,,,,,,,,,,,,,,,,,,,,,,,,,,,,,,,,,,,,,,,,,,,,,,,,,,,,,,,,,,,,,,,,,,,,,,,,,,,,
11813,1645900993.9616039,1645900993.986677,84.0,0.0,4339.487305,4491.794922,4227.692383,4165.128418,4278.974121,450.0,1.0,15.0,,,,0.0,4.0,1.0,4.0,4.0,4.0,75.0,,,,,,,,42.0,0.0,0.717852,0.045166000000000005,0.665039,0.200928,0.9580219999999999,-0.336431,-0.109865,-0.024038,-0.033327999999999997,-0.010454999999999999,,,,,,,,,,,,,,,,,,,,,,,,,,,,,,,,,,,,,,,,,,,,,,,,,,,,,,,,,,,,,,,,,
11814,1645900993.969417,1645900993.994491,85.0,0.0,4327.692383,4492.307617,4186.666504,4150.769043,4283.589844,450.0,1.0,15.0,,,,0.0,4.0,1.0,4.0,4.0,4.0,75.0,,,,,,,,,,,,,,,,,,,,,,,,,,,,,,,,,,,,,,,,,,,,,,,,,,,,,,,,,,,,,,,,,,,,,,,,,,,,,,,,,,,,
11815,1645900993.977231,1645900994.002306,86.0,0.0,4320.0,4501.025879,4183.589844,4162.05127,4256.410156,450.0,1.0,15.0,,,,0.0,4.0,1.0,4.0,4.0,4.0,75.0,0.972656,16.666666,4.0,0.0,0.0,2.0,3.0,43.0,0.0,0.717852,0.045166000000000005,0.665039,0.200928,0.944839,-0.32959499999999997,-0.11230599999999999,-0.024759,-0.033316000000000005,-0.011705,1.0,0.0,0.0,,,,,,,,,,,,,,,,,,,,,,,,,,,,,,,,0.0,0.0,1.0,0.0,512.0,0.6499010000000001,5.914789,9.49213,5.8619449999999995,2.859206,2.893991,49.213584999999995,30.245871,51.16375,29.963696999999996,16.724354,23.35363,16.140734,27.856127,9.128508,5.340072,5.83221,8.328424,10.555292999999999,4.535707,4.744555999999999,3.94296,4.156751,6.592886,1.8684919999999998,2.134881
11816,1645900993.985044,1645900994.01012,87.0,0.0,4318.461426,4509.743652,4195.897461,4169.230957,4256.410156,16188.0,1.0,15.0,,,,0.0,4.0,1.0,4.0,4.0,4.0,75.0,,,,,,,,,,,,,,,,,,,,,,,,,,,,,,,,,,,,,,,,,,,,,,,,,,,,,,,,,,,,,,,,,,,,,,,,,,,,,,,,,,,,
11817,1645900993.992858,1645900994.017935,88.0,0.0,4288.205078,4484.615234000001,4194.871582,4124.615234000001,4282.563965,450.0,1.0,15.0,,,,0.0,4.0,1.0,4.0,4.0,4.0,75.0,,,,,,,,44.0,0.0,0.717852,0.045166000000000005,0.665039,0.200928,0.941421,-0.332036,-0.112795,-0.025457,-0.033353,-0.009753,,,,,,,,,,,,,,,,,,,,,,,,,,,,,,,,,,,,,,,,,,,,,,,,,,,,,,,,,,,,,,,,,
11818,1645900994.000672,1645900994.025749,89.0,0.0,4275.384765999999,4434.871582,4223.589844,4127.179688,4272.307617,450.0,1.0,15.0,,,,0.0,4.0,1.0,4.0,4.0,4.0,75.0,,,,,,,,,,,,,,,,,,,,,,,,,,,,,,,,,,,,,,,,,,,,,,,,,,,,,,,,,,,,,,,,,,,,,,,,,,,,,,,,,,,,
11819,1645900994.008485,1645900994.0335631,90.0,0.0,4315.897461,4452.820313,4235.897461,4138.974121,4237.94873,450.0,1.0,15.0,,,,0.0,4.0,1.0,4.0,4.0,4.0,75.0,,,,,,,,45.0,0.0,0.717852,0.045166000000000005,0.665039,0.200928,0.9365379999999999,-0.339361,-0.109377,-0.026182999999999998,-0.033338,-0.011073000000000001,,,,,,,,,,,,,,,,,,,,,,,,,,,,,,,,,,,0.0,0.0,1.0,0.0,512.0,0.6499010000000001,,,,,,,,,,,,,,,,,,,,,,,,,
11820,1645900994.016299,1645900994.041378,91.0,0.0,4352.307617,4507.692383,4249.743652,4115.897461,4274.358886999999,16188.0,1.0,15.0,,,,0.0,4.0,1.0,4.0,4.0,4.0,75.0,,,,,,,,,,,,,,,,,,,,,,,,,,,,,,,,,,,,,,,,,,,,,,,,,,,,,,,,,,,,,,,,,,,,,,,,,,,,,,,,,,,,
11821,1645900994.024112,1645900994.049192,92.0,0.0,4314.358886999999,4409.230957,4272.820313,4142.563965,4298.974121,450.0,1.0,15.0,,,,0.0,4.0,1.0,4.0,4.0,4.0,75.0,,,,,,,,46.0,0.0,0.717852,0.045166000000000005,0.665039,0.200928,0.941909,-0.34473200000000004,-0.107912,-0.023613,-0.033276,-0.012309,,,,,,,,,,,,,,,,,,,,,,,,,,,,,,,,,,,,,,,,,,,,,,,,,,,,,,,,,,,,,,,,,
11822,1645900994.031926,1645900994.056907,93.0,0.0,4284.615234000001,4333.846191,4308.717772999999,4161.538574,4258.974121,450.0,1.0,15.0,,,,0.0,4.0,1.0,4.0,4.0,4.0,75.0,,,,,,,,,,,,,,,,,,,,,,,,,,,,,,,,,,,,,,,,,,,,,,,,,,,,,,,,,,,,,,,,,,,,,,,,,,,,,,,,,,,,
11823,1645900994.0397391,1645900994.064721,94.0,0.0,4299.487305,4490.769043,4319.487305,4099.487305,4253.333496,450.0,1.0,15.0,,,,0.0,4.0,1.0,4.0,4.0,4.0,75.0,,,,,,,,47.0,0.0,0.717852,0.045166000000000005,0.665039,0.200928,0.9433739999999999,-0.336919,-0.121584,-0.024377,-0.033269,-0.013471,,,,,,,,,,,,,,,,,,,,,,,,,,,,,,,,,,,0.0,0.0,1.0,0.0,512.0,0.6499010000000001,,,,,,,,,,,,,,,,,,,,,,,,,
11824,1645900994.0475528,1645900994.072536,95.0,0.0,4308.205078,4602.05127,4301.538574,4093.3332520000004,4261.025879,16188.0,1.0,15.0,,,,0.0,4.0,1.0,4.0,4.0,4.0,75.0,,,,,,,,,,,,,,,,,,,,,,,,,,,,,,,,,,,,,,,,,,,,,,,,,,,,,,,,,,,,,,,,,,,,,,,,,,,,,,,,,,,,
11825,1645900994.055367,1645900994.08035,96.0,0.0,4305.128418,4540.0,4261.025879,4142.05127,4249.743652,450.0,1.0,15.0,,,,0.0,4.0,1.0,4.0,4.0,4.0,75.0,,,,,,,,48.0,0.0,0.71792,0.045166000000000005,0.665039,0.200684,0.946792,-0.341802,-0.11767799999999999,-0.025259999999999998,-0.033214,-0.014516,,,,,,,,,,,,,,,,,,,,,,,,,,,,,,,,,,,,,,,,,,,,,,,,,,,,,,,,,,,,,,,,,
11826,1645900994.06318,1645900994.088164,97.0,0.0,4298.461426,4497.94873,4312.820313,4144.615234000001,4261.025879,450.0,1.0,15.0,,,,0.0,4.0,1.0,4.0,4.0,4.0,75.0,,,,,,,,,,,,,,,,,,,,,,,,,,,,,,,,,,,,,,,,,,,,,,,,,,,,,,,,,,,,,,,,,,,,,,,,,,,,,,,,,,,,
11827,1645900994.070994,1645900994.095979,98.0,0.0,4324.102539,4513.333496,4237.436035,4141.025879,4297.436035,450.0,1.0,15.0,,,,0.0,4.0,1.0,4.0,4.0,4.0,75.0,,,,,,,,49.0,0.0,0.71792,0.045166000000000005,0.665039,0.200684,0.9433739999999999,-0.330571,-0.11523599999999999,-0.025907999999999997,-0.03331,-0.012332,,,,,,,,,,,,,,,,,,,,,,,,,,,,,,,,,,,0.0,0.0,1.0,0.0,512.0,0.6499010000000001,,,,,,,,,,,,,,,,,,,,,,,,,
11828,1645900994.078807,1645900994.103793,99.0,0.0,4331.282227000001,4517.94873,4180.0,4134.358886999999,4309.743652,16188.0,1.0,15.0,,,,0.0,4.0,1.0,4.0,4.0,4.0,75.0,,,,,,,,,,,,,,,,,,,,,,,,,,,,,,,,,,,,,,,,,,,,,,,,,,,,,,,,,,,,,,,,,,,,,,,,,,,,,,,,,,,,
11829,1645900994.086621,1645900994.111608,100.0,0.0,4312.307617,4482.563965,4281.538574,4122.563965,4298.461426,450.0,1.0,15.0,,,,0.0,4.0,1.0,4.0,4.0,4.0,75.0,,,,,,,,50.0,0.0,0.717935,0.044922000000000004,0.665039,0.200684,0.94435,-0.335943,-0.109865,-0.023366,-0.033397,-0.013443,,,,,,,,,,,,,,,,,,,,,,,,,,,,,,,,,,,,,,,,,,,,,,,,,,,,,,,,,,,,,,,,,
11830,1645900994.094435,1645900994.119422,101.0,0.0,4319.487305,4477.436035,4290.769043,4106.666504,4278.461426,450.0,1.0,15.0,,,,0.0,4.0,1.0,4.0,4.0,4.0,75.0,,,,,,,,,,,,,,,,,,,,,,,,,,,,,,,,,,,,,,,,,,,,,,,,,,,,,,,,,,,,,,,,,,,,,,,,,,,,,,,,,,,,
11831,1645900994.102248,1645900994.127137,102.0,0.0,4343.077147999999,4520.0,4192.820313,4117.94873,4278.974121,450.0,1.0,15.0,,,,0.0,4.0,1.0,4.0,4.0,4.0,75.0,,,,,,,,51.0,0.0,0.717935,0.044922000000000004,0.665039,0.200684,0.9433739999999999,-0.334478,-0.103029,-0.024154,-0.033427,-0.011317,1.0,0.0,0.0,,,,,,,,,,,,,,,,,,,,,,,,,,,,,,,,0.0,0.0,1.0,0.0,512.0,0.471998,6.631582000000001,10.646806,5.146466,3.022616,2.957307,43.947414,27.288113,52.329741999999996,26.763552,17.474825,21.329966,12.485831,28.521342999999998,9.470711,5.233765,5.331231,8.425327000000001,10.587549000000001,4.730096,4.665529,4.717219999999999,4.467775,6.227284,1.8424509999999998,2.132812
11832,1645900994.110062,1645900994.1349509,103.0,0.0,4320.0,4530.769043,4226.153809,4150.769043,4273.846191,16188.0,1.0,15.0,,,,0.0,4.0,1.0,4.0,4.0,4.0,75.0,,,,,,,,,,,,,,,,,,,,,,,,,,,,,,,,,,,,,,,,,,,,,,,,,,,,,,,,,,,,,,,,,,,,,,,,,,,,,,,,,,,,
11833,1645900994.117875,1645900994.142766,104.0,0.0,4302.05127,4510.256348,4251.794922,4166.153809,4286.666504,450.0,1.0,15.0,,,,0.0,4.0,1.0,4.0,4.0,4.0,75.0,,,,,,,,52.0,0.0,0.718004,0.044922000000000004,0.665039,0.200439,0.9463030000000001,-0.32910700000000004,-0.12109600000000001,-0.024863999999999997,-0.033356,-0.009453,,,,,,,,,,,,,,,,,,,,,,,,,,,,,,,,,,,,,,,,,,,,,,,,,,,,,,,,,,,,,,,,,
11834,1645900994.125689,1645900994.1505811,105.0,0.0,4287.179688,4472.820313,4192.307617,4168.717772999999,4298.974121,450.0,1.0,15.0,,,,0.0,4.0,1.0,4.0,4.0,4.0,75.0,,,,,,,,,,,,,,,,,,,,,,,,,,,,,,,,,,,,,,,,,,,,,,,,,,,,,,,,,,,,,,,,,,,,,,,,,,,,,,,,,,,,
11835,1645900994.133503,1645900994.1583948,106.0,0.0,4286.666504,4484.102539,4212.820313,4184.615234000001,4294.871582,450.0,1.0,15.0,,,,0.0,4.0,1.0,4.0,4.0,4.0,75.0,,,,,,,,53.0,0.0,0.717793,0.044677999999999995,0.665283,0.200439,0.957534,-0.33789600000000003,-0.109377,-0.025551,-0.033389,-0.010851999999999999,,,,,,,,,,,,,,,,,,,,,,,,,,,,,,,,,,,0.0,0.0,1.0,0.0,512.0,0.471998,,,,,,,,,,,,,,,,,,,,,,,,,
11836,1645900994.141316,1645900994.16621,107.0,0.0,4302.05127,4545.641113000001,4263.589844,4140.512695,4292.820313,16188.0,1.0,15.0,,,,0.0,4.0,1.0,4.0,4.0,4.0,75.0,,,,,,,,,,,,,,,,,,,,,,,,,,,,,,,,,,,,,,,,,,,,,,,,,,,,,,,,,,,,,,,,,,,,,,,,,,,,,,,,,,,,
11837,1645900994.14913,1645900994.174025,108.0,0.0,4303.589844,4525.641113000001,4266.153809,4111.794922,4309.743652,450.0,1.0,15.0,,,,0.0,4.0,1.0,4.0,4.0,4.0,75.0,,,,,,,,54.0,0.0,0.717951,0.044677999999999995,0.665039,0.200684,0.952651,-0.32813000000000003,-0.12060699999999999,-0.023045,-0.033371,-0.01211,,,,,,,,,,,,,,,,,,,,,,,,,,,,,,,,,,,,,,,,,,,,,,,,,,,,,,,,,,,,,,,,,
11838,1645900994.156943,1645900994.181839,109.0,0.0,4304.102539,4438.974121,4242.05127,4144.102539,4300.0,450.0,1.0,15.0,,,,0.0,4.0,1.0,4.0,4.0,4.0,75.0,,,,,,,,,,,,,,,,,,,,,,,,,,,,,,,,,,,,,,,,,,,,,,,,,,,,,,,,,,,,,,,,,,,,,,,,,,,,,,,,,,,,
11839,1645900994.164757,1645900994.1896539,110.0,0.0,4312.820313,4469.230957,4302.563965,4126.153809,4285.641113000001,450.0,1.0,15.0,,,,0.0,4.0,1.0,4.0,4.0,4.0,75.0,,,,,,,,55.0,0.0,0.717724,0.044677999999999995,0.665283,0.200684,0.946792,-0.334478,-0.107424,-0.020789,-0.033305,-0.013243000000000001,,,,,,,,,,,,,,,,,,,,,,,,,,,,,,,,,,,0.0,0.0,1.0,0.0,512.0,0.471998,,,,,,,,,,,,,,,,,,,,,,,,,
11840,1645900994.1725712,1645900994.197368,111.0,0.0,4316.922852000001,4503.077147999999,4317.94873,4093.3332520000004,4302.05127,16188.0,1.0,15.0,,,,0.0,4.0,1.0,4.0,4.0,4.0,75.0,,,,,,,,,,,,,,,,,,,,,,,,,,,,,,,,,,,,,,,,,,,,,,,,,,,,,,,,,,,,,,,,,,,,,,,,,,,,,,,,,,,,
11841,1645900994.180384,1645900994.205183,112.0,0.0,4320.0,4447.179688,4277.94873,4136.922852000001,4308.717772999999,450.0,1.0,15.0,,,,0.0,4.0,1.0,4.0,4.0,4.0,75.0,,,,,,,,56.0,0.0,0.7177399999999999,0.044433999999999994,0.665283,0.200684,0.946792,-0.334478,-0.11425999999999999,-0.016932,-0.033193,-0.015131,,,,,,,,,,,,,,,,,,,,,,,,,,,,,,,,,,,,,,,,,,,,,,,,,,,,,,,,,,,,,,,,,
11842,1645900994.188198,1645900994.212997,113.0,0.0,4327.179688,4453.846191,4262.563965,4165.641113000001,4283.589844,450.0,1.0,15.0,,,,0.0,4.0,1.0,4.0,4.0,4.0,75.0,,,,,,,,,,,,,,,,,,,,,,,,,,,,,,,,,,,,,,,,,,,,,,,,,,,,,,,,,,,,,,,,,,,,,,,,,,,,,,,,,,,,
11843,1645900994.1960108,1645900994.2208118,114.0,0.0,4334.358886999999,4471.282227000001,4269.743652,4148.717772999999,4251.282227000001,450.0,1.0,15.0,,,,0.0,4.0,1.0,4.0,4.0,4.0,75.0,,,,,,,,57.0,0.0,0.7177399999999999,0.044433999999999994,0.665283,0.200684,0.946792,-0.340826,-0.113771,-0.018315,-0.033243,-0.012886000000000002,,,,,,,,,,,,,,,,,,,,,,,,,,,,,,,,,,,0.0,0.0,1.0,0.0,512.0,0.471998,,,,,,,,,,,,,,,,,,,,,,,,,
11844,1645900994.203825,1645900994.228626,115.0,0.0,4340.0,4450.769043,4207.692383,4155.384765999999,4269.743652,16188.0,1.0,15.0,,,,0.0,4.0,1.0,4.0,4.0,4.0,75.0,,,,,,,,,,,,,,,,,,,,,,,,,,,,,,,,,,,,,,,,,,,,,,,,,,,,,,,,,,,,,,,,,,,,,,,,,,,,,,,,,,,,
11845,1645900994.2116392,1645900994.23644,116.0,0.0,4292.820313,4489.743652,4238.461426,4158.974121,4282.563965,450.0,1.0,15.0,,,,0.0,4.0,1.0,4.0,4.0,4.0,75.0,,,,,,,,58.0,0.0,0.7177399999999999,0.044433999999999994,0.665283,0.200684,0.9389790000000001,-0.330083,-0.112795,-0.019706,-0.033288,-0.013941,,,,,,,,,,,,,,,,,,,,,,,,,,,,,,,,,,,,,,,,,,,,,,,,,,,,,,,,,,,,,,,,,
11846,1645900994.219452,1645900994.244255,117.0,0.0,4285.128418,4535.384765999999,4224.615234000001,4146.153809,4272.307617,450.0,1.0,15.0,,,,0.0,4.0,1.0,4.0,4.0,4.0,75.0,,,,,,,,,,,,,,,,,,,,,,,,,,,,,,,,,,,,,,,,,,,,,,,,,,,,,,,,,,,,,,,,,,,,,,,,,,,,,,,,,,,,
11847,1645900994.227266,1645900994.2519698,118.0,0.0,4336.410156,4486.666504,4131.794922,4099.487305,4287.692383,450.0,1.0,15.0,,,,0.0,4.0,1.0,4.0,4.0,4.0,75.0,,,,,,,,59.0,0.0,0.7177399999999999,0.044433999999999994,0.665283,0.200684,0.9521629999999999,-0.337407,-0.093263,-0.020909999999999998,-0.033231000000000004,-0.014939,1.0,0.0,0.0,,,,,,,,,,,,,,,,,,,,,,,,,,,,,,,,0.0,0.0,1.0,0.0,512.0,0.409921,6.889652000000001,10.997438,4.2856190000000005,3.0563,2.896976,40.491161,26.178974,52.111115000000005,23.981413,18.186417000000002,18.719654000000002,12.027616,27.216043,9.33885,5.245069,4.619662,8.479724000000001,11.296750999999999,4.888664,4.400853,5.751966,4.617602,5.215637999999999,1.809366,2.176073
11848,1645900994.2350788,1645900994.259784,119.0,0.0,4344.102539,4429.743652,4170.769043,4097.94873,4320.0,16188.0,1.0,15.0,,,,0.0,4.0,1.0,4.0,4.0,4.0,75.0,,,,,,,,,,,,,,,,,,,,,,,,,,,,,,,,,,,,,,,,,,,,,,,,,,,,,,,,,,,,,,,,,,,,,,,,,,,,,,,,,,,,
11849,1645900994.242893,1645900994.267599,120.0,0.0,4324.615234000001,4483.077147999999,4242.563965,4143.077147999999,4282.05127,450.0,1.0,15.0,,,,0.0,4.0,1.0,4.0,4.0,4.0,75.0,,,,,,,,60.0,0.0,0.7177399999999999,0.044433999999999994,0.665283,0.200684,0.9399559999999999,-0.332525,-0.11425999999999999,-0.021943999999999998,-0.033179,-0.012713,,,,,,,,,,,,,,,,,,,,,,,,,,,,,,,,,,,,,,,,,,,,,,,,,,,,,,,,,,,,,,,,,
11850,1645900994.2507071,1645900994.275414,121.0,0.0,4343.589844,4557.436035,4217.436035,4143.077147999999,4264.615234000001,450.0,1.0,15.0,,,,0.0,4.0,1.0,4.0,4.0,4.0,75.0,,,,,,,,,,,,,,,,,,,,,,,,,,,,,,,,,,,,,,,,,,,,,,,,,,,,,,,,,,,,,,,,,,,,,,,,,,,,,,,,,,,,
11851,1645900994.25852,1645900994.283228,122.0,0.0,4320.0,4452.820313,4214.871582,4134.871582,4288.717772999999,450.0,1.0,15.0,,,,0.0,4.0,1.0,4.0,4.0,4.0,75.0,,,,,,,,61.0,0.0,0.7176560000000001,0.044677999999999995,0.665283,0.200928,0.939467,-0.34815,-0.101564,-0.022972,-0.033083999999999995,-0.010563,,,,,,,,,,,,,,,,,,,,,,,,,,,,,,,,,,,0.0,0.0,1.0,0.0,512.0,0.409921,,,,,,,,,,,,,,,,,,,,,,,,,
11852,1645900994.266334,1645900994.291043,123.0,0.0,4303.589844,4372.820313,4252.307617,4169.743652,4284.102539,16188.0,1.0,15.0,,,,0.0,4.0,1.0,4.0,4.0,4.0,75.0,,,,,,,,,,,,,,,,,,,,,,,,,,,,,,,,,,,,,,,,,,,,,,,,,,,,,,,,,,,,,,,,,,,,,,,,,,,,,,,,,,,,
11853,1645900994.274147,1645900994.298857,124.0,0.0,4326.153809,4473.333496,4263.589844,4141.025879,4275.897461,450.0,1.0,15.0,,,,0.0,4.0,1.0,4.0,4.0,4.0,75.0,,,,,,,,62.0,0.0,0.7177399999999999,0.044433999999999994,0.665283,0.200684,0.941909,-0.335943,-0.113771,-0.0238,-0.032998,-0.011948,,,,,,,,,,,,,,,,,,,,,,,,,,,,,,,,,,,,,,,,,,,,,,,,,,,,,,,,,,,,,,,,,
11854,1645900994.281961,1645900994.306672,125.0,0.0,4312.820313,4475.897461,4274.358886999999,4101.025879,4288.717772999999,450.0,1.0,15.0,,,,0.0,4.0,1.0,4.0,4.0,4.0,75.0,,,,,,,,,,,,,,,,,,,,,,,,,,,,,,,,,,,,,,,,,,,,,,,,,,,,,,,,,,,,,,,,,,,,,,,,,,,,,,,,,,,,
11855,1645900994.289775,1645900994.314487,126.0,0.0,4306.666504,4419.487305,4233.333496,4128.205078,4288.205078,450.0,1.0,15.0,,,,0.0,4.0,1.0,4.0,4.0,4.0,75.0,,,,,,,,63.0,0.0,0.7177399999999999,0.044433999999999994,0.665283,0.200684,0.9472799999999999,-0.321782,-0.103029,-0.024544999999999997,-0.033068,-0.013047999999999999,,,,,,,,,,,,,,,,,,,,,,,,,,,,,,,,,,,0.0,0.0,1.0,0.0,512.0,0.409921,,,,,,,,,,,,,,,,,,,,,,,,,
11856,1645900994.297588,1645900994.322301,127.0,0.0,4318.974121,4507.179688,4291.794922,4152.307617,4274.358886999999,233.0,1.0,15.0,,,,0.0,4.0,1.0,4.0,4.0,4.0,75.0,,,,,,,,,,,,,,,,,,,,,,,,,,,,,,,,,,,,,,,,,,,,,,,,,,,,,,,,,,,,,,,,,,,,,,,,,,,,,,,,,,,,
11857,1645900994.305402,1645900994.330016,0.0,0.0,4316.410156,4566.666504,4318.461426,4151.282227000001,4270.769043,450.0,1.0,15.0,,,,0.0,4.0,1.0,4.0,4.0,4.0,75.0,,,,,,,,0.0,0.0,0.717808,0.044433999999999994,0.665283,0.200439,0.9350729999999999,-0.323247,-0.10888800000000001,-0.025167,-0.033081,-0.010912999999999999,,,,,,,,,,,,,,,,,,,,,,,,,,,,,,,,,,,,,,,,,,,,,,,,,,,,,,,,,,,,,,,,,
11858,1645900994.313215,1645900994.337831,1.0,0.0,4314.871582,4529.230957,4274.358886999999,4136.410156,4280.512695,450.0,1.0,15.0,,,,0.0,4.0,1.0,4.0,4.0,4.0,75.0,,,,,,,,,,,,,,,,,,,,,,,,,,,,,,,,,,,,,,,,,,,,,,,,,,,,,,,,,,,,,,,,,,,,,,,,,,,,,,,,,,,,
11859,1645900994.321029,1645900994.345645,2.0,0.0,4330.256348,4495.897461,4255.384765999999,4126.153809,4289.743652,16098.0,1.0,15.0,,,,0.0,4.0,1.0,4.0,4.0,4.0,75.0,,,,,,,,1.0,0.0,0.717808,0.044433999999999994,0.665283,0.200439,0.938491,-0.332525,-0.095705,-0.025873,-0.033142000000000005,-0.008893999999999999,,,,,,,,,,,,,,,,,,,,,,,,,,,,,,,,,,,0.0,0.0,1.0,0.0,512.0,0.409921,,,,,,,,,,,,,,,,,,,,,,,,,
11860,1645900994.3288429,1645900994.35346,3.0,0.0,4341.538574,4466.666504,4231.794922,4126.666504,4281.538574,450.0,1.0,15.0,,,,0.0,4.0,1.0,4.0,4.0,4.0,75.0,,,,,,,,,,,,,,,,,,,,,,,,,,,,,,,,,,,,,,,,,,,,,,,,,,,,,,,,,,,,,,,,,,,,,,,,,,,,,,,,,,,,
11861,1645900994.336656,1645900994.361275,4.0,0.0,4337.94873,4458.461426,4173.846191,4150.769043,4292.307617,50.0,1.0,15.0,,,,0.0,4.0,1.0,4.0,4.0,4.0,75.0,,,,,,,,2.0,0.0,0.7178760000000001,0.044433999999999994,0.665283,0.200195,0.96144,-0.32861799999999997,-0.11133,-0.026557,-0.033197000000000004,-0.010348999999999999,,,,,,,,,,,,,,,,,,,,,,,,,,,,,,,,,,,,,,,,,,,,,,,,,,,,,,,,,,,,,,,,,
11862,1645900994.34447,1645900994.3690891,5.0,0.0,4312.307617,4456.922852000001,4216.410156,4176.410156,4272.307617,450.0,1.0,15.0,,,,0.0,4.0,1.0,4.0,4.0,4.0,75.0,,,,,,,,,,,,,,,,,,,,,,,,,,,,,,,,,,,,,,,,,,,,,,,,,,,,,,,,,,,,,,,,,,,,,,,,,,,,,,,,,,,,
11863,1645900994.352283,1645900994.376904,6.0,0.0,4328.717772999999,4419.487305,4182.563965,4155.384765999999,4254.871582,16145.0,1.0,15.0,,,,0.0,4.0,1.0,4.0,4.0,4.0,75.0,,,,,,,,3.0,0.0,0.7178760000000001,0.044433999999999994,0.665283,0.200195,0.95021,-0.342779,-0.116701,-0.027075,-0.033198000000000005,-0.011656999999999999,1.0,0.0,0.0,,,,,,,,,,,,,,,,,,,,,,,,,,,,,,,,0.0,0.0,1.0,0.0,512.0,0.414195,6.654121000000001,10.465023,3.5631809999999997,2.949091,2.769441,38.182784999999996,26.700333,49.6828,21.996992000000002,18.797804,16.282192000000002,14.562225,24.381504,8.669011,5.406482,3.9352160000000005,8.314583,12.390877,4.887983999999999,4.006598,6.85372,4.528135,3.890143,1.7904380000000002,2.230289
11864,1645900994.3600972,1645900994.384719,7.0,0.0,4337.436035,4469.743652,4122.563965,4117.94873,4290.256348,450.0,1.0,15.0,,,,0.0,4.0,1.0,4.0,4.0,4.0,75.0,,,,,,,,,,,,,,,,,,,,,,,,,,,,,,,,,,,,,,,,,,,,,,,,,,,,,,,,,,,,,,,,,,,,,,,,,,,,,,,,,,,,
11865,1645900994.3679109,1645900994.392533,8.0,0.0,4314.358886999999,4571.282227000001,4207.179688,4170.256348,4311.282227000001,450.0,1.0,15.0,,,,0.0,4.0,1.0,4.0,4.0,4.0,75.0,,,,,,,,4.0,0.0,0.717808,0.044433999999999994,0.665283,0.200439,0.938491,-0.332525,-0.095705,-0.024465,-0.033247000000000006,-0.012884,,,,,,,,,,,,,,,,,,,,,,,,,,,,,,,,,,,,,,,,,,,,,,,,,,,,,,,,,,,,,,,,,
11866,1645900994.375724,1645900994.400348,9.0,0.0,4332.307617,4542.563965,4238.461426,4181.538574,4281.025879,16160.0,1.0,15.0,,,,0.0,4.0,1.0,4.0,4.0,4.0,75.0,,,,,,,,,,,,,,,,,,,,,,,,,,,,,,,,,,,,,,,,,,,,,,,,,,,,,,,,,,,,,,,,,,,,,,,,,,,,,,,,,,,,
11867,1645900994.383538,1645900994.4080632,10.0,0.0,4373.333496,4452.307617,4174.871582,4112.820313,4296.922852000001,450.0,1.0,15.0,,,,0.0,4.0,1.0,4.0,4.0,4.0,75.0,,,,,,,,5.0,0.0,0.7178760000000001,0.044433999999999994,0.665283,0.200195,0.95021,-0.342779,-0.116701,-0.025193,-0.033243,-0.013940000000000001,,,,,,,,,,,,,,,,,,,,,,,,,,,,,,,,,,,0.0,0.0,1.0,0.0,512.0,0.414195,,,,,,,,,,,,,,,,,,,,,,,,,
11868,1645900994.391351,1645900994.4158769,11.0,0.0,4340.512695,4424.615234000001,4212.820313,4132.307617,4303.589844,16128.0,1.0,15.0,,,,0.0,4.0,1.0,4.0,4.0,4.0,75.0,,,,,,,,,,,,,,,,,,,,,,,,,,,,,,,,,,,,,,,,,,,,,,,,,,,,,,,,,,,,,,,,,,,,,,,,,,,,,,,,,,,,
11869,1645900994.3991652,1645900994.423692,12.0,0.0,4315.384765999999,4474.358886999999,4294.358886999999,4196.922852000001,4258.461426,450.0,1.0,15.0,,,,0.0,4.0,1.0,4.0,4.0,4.0,75.0,,,,,,,,6.0,0.0,0.717581,0.044433999999999994,0.6655270000000001,0.200439,0.946792,-0.33984899999999996,-0.104494,-0.025798,-0.03319,-0.011812999999999999,,,,,,,,,,,,,,,,,,,,,,,,,,,,,,,,,,,,,,,,,,,,,,,,,,,,,,,,,,,,,,,,,
11870,1645900994.406978,1645900994.431507,13.0,0.0,4334.871582,4475.384765999999,4226.153809,4165.128418,4245.128418,450.0,1.0,15.0,,,,0.0,4.0,1.0,4.0,4.0,4.0,75.0,,,,,,,,,,,,,,,,,,,,,,,,,,,,,,,,,,,,,,,,,,,,,,,,,,,,,,,,,,,,,,,,,,,,,,,,,,,,,,,,,,,,
11871,1645900994.414792,1645900994.439321,14.0,0.0,4345.128418,4428.717772999999,4197.94873,4140.512695,4261.538574,450.0,1.0,15.0,,,,0.0,4.0,1.0,4.0,4.0,4.0,75.0,,,,,,,,7.0,0.0,0.717566,0.044677999999999995,0.6655270000000001,0.200439,0.9404440000000001,-0.343267,-0.09472799999999999,-0.026489999999999996,-0.033289,-0.012976,,,,,,,,,,,,,,,,,,,,,,,,,,,,,,,,,,,0.0,0.0,1.0,0.0,512.0,0.414195,,,,,,,,,,,,,,,,,,,,,,,,,
11872,1645900994.422606,1645900994.447136,15.0,0.0,4350.256348,4456.922852000001,4255.897461,4172.307617,4272.820313,16128.0,1.0,15.0,,,,0.0,4.0,1.0,4.0,4.0,4.0,75.0,,,,,,,,,,,,,,,,,,,,,,,,,,,,,,,,,,,,,,,,,,,,,,,,,,,,,,,,,,,,,,,,,,,,,,,,,,,,,,,,,,,,
11873,1645900994.430419,1645900994.454951,16.0,0.0,4352.820313,4527.692383,4282.563965,4184.615234000001,4282.05127,0.0,1.0,15.0,,,,0.0,4.0,1.0,4.0,4.0,4.0,75.0,,,,,,,,8.0,0.0,0.717566,0.044677999999999995,0.6655270000000001,0.200439,0.937026,-0.340826,-0.107424,-0.027063999999999998,-0.033183,-0.010799,,,,,,,,,,,,,,,,,,,,,,,,,,,,,,,,,,,,,,,,,,,,,,,,,,,,,,,,,,,,,,,,,
11874,1645900994.438233,1645900994.462765,17.0,0.0,4337.436035,4507.179688,4196.922852000001,4176.922852000001,4275.897461,0.0,1.0,15.0,,,,0.0,4.0,1.0,4.0,4.0,4.0,75.0,,,,,,,,,,,,,,,,,,,,,,,,,,,,,,,,,,,,,,,,,,,,,,,,,,,,,,,,,,,,,,,,,,,,,,,,,,,,,,,,,,,,
11875,1645900994.446046,1645900994.47058,18.0,0.0,4300.512695,4424.615234000001,4212.307617,4170.256348,4248.205078,0.0,1.0,15.0,,,,0.0,4.0,1.0,4.0,4.0,4.0,75.0,,,,,,,,9.0,0.0,0.717566,0.044677999999999995,0.6655270000000001,0.200439,0.9438620000000001,-0.340337,-0.114748,-0.027482,-0.033234,-0.012062999999999999,,,,,,,,,,,,,,,,,,,,,,,,,,,,,,,,,,,0.0,0.0,1.0,0.0,512.0,0.414195,,,,,,,,,,,,,,,,,,,,,,,,,
11876,1645900994.45386,1645900994.478395,19.0,0.0,4313.846191,4421.025879,4219.487305,4187.692383,4252.820313,0.0,1.0,15.0,,,,0.0,4.0,1.0,4.0,4.0,4.0,75.0,,,,,,,,,,,,,,,,,,,,,,,,,,,,,,,,,,,,,,,,,,,,,,,,,,,,,,,,,,,,,,,,,,,,,,,,,,,,,,,,,,,,
11877,1645900994.461674,1645900994.486109,20.0,0.0,4358.974121,4459.487305,4155.897461,4172.307617,4288.205078,0.0,1.0,15.0,,,,0.0,4.0,1.0,4.0,4.0,4.0,75.0,,,,,,,,10.0,0.0,0.717566,0.044677999999999995,0.6655270000000001,0.200439,0.945327,-0.332036,-0.11035299999999999,-0.028006,-0.033280000000000004,-0.013249,,,,,,,,,,,,,,,,,,,,,,,,,,,,,,,,,,,,,,,,,,,,,,,,,,,,,,,,,,,,,,,,,
11878,1645900994.469487,1645900994.4939241,21.0,0.0,4357.94873,4424.102539,4187.179688,4153.846191,4303.589844,0.0,1.0,15.0,,,,0.0,4.0,1.0,4.0,4.0,4.0,75.0,,,,,,,,,,,,,,,,,,,,,,,,,,,,,,,,,,,,,,,,,,,,,,,,,,,,,,,,,,,,,,,,,,,,,,,,,,,,,,,,,,,,
11879,1645900994.477301,1645900994.501739,22.0,0.0,4332.820313,4373.846191,4260.512695,4181.538574,4267.179688,0.0,1.0,15.0,,,,0.0,4.0,1.0,4.0,4.0,4.0,75.0,0.972656,16.666666,4.0,0.0,0.0,2.0,3.0,11.0,0.0,0.717566,0.044677999999999995,0.6655270000000001,0.200439,0.944839,-0.332036,-0.097169,-0.02833,-0.033320999999999996,-0.011143,1.0,0.0,0.0,,,,,,,,,,,,,,,,,,,,,,,,,,,,,,,,0.0,0.0,1.0,0.0,512.0,0.407885,5.988767,9.297074,3.176523,2.734308,2.627473,35.697594,28.059140999999997,44.958424,20.534422,19.310032,15.103832999999998,19.418316,20.774572,7.556931,5.745858,3.500139,7.8462559999999995,13.410120999999998,4.698696,3.563456,7.7357759999999995,4.197247,2.67353,1.8041150000000001,2.255743
11880,1645900994.485114,1645900994.509553,23.0,0.0,4355.897461,4453.846191,4227.179688,4201.538574,4272.307617,0.0,1.0,15.0,,,,0.0,4.0,1.0,4.0,4.0,4.0,75.0,,,,,,,,,,,,,,,,,,,,,,,,,,,,,,,,,,,,,,,,,,,,,,,,,,,,,,,,,,,,,,,,,,,,,,,,,,,,,,,,,,,,
11881,1645900994.492928,1645900994.517368,24.0,0.0,4330.769043,4514.871582,4197.436035,4190.256348,4276.410156,0.0,1.0,15.0,,,,0.0,4.0,1.0,4.0,4.0,4.0,75.0,,,,,,,,12.0,0.0,0.717287,0.044433999999999994,0.665771,0.200684,0.9472799999999999,-0.339361,-0.105959,-0.028671,-0.033260000000000005,-0.009295999999999999,,,,,,,,,,,,,,,,,,,,,,,,,,,,,,,,,,,,,,,,,,,,,,,,,,,,,,,,,,,,,,,,,
11882,1645900994.500742,1645900994.525183,25.0,0.0,4302.563965,4469.230957,4189.743652,4176.410156,4254.358886999999,0.0,1.0,15.0,,,,0.0,4.0,1.0,4.0,4.0,4.0,75.0,,,,,,,,,,,,,,,,,,,,,,,,,,,,,,,,,,,,,,,,,,,,,,,,,,,,,,,,,,,,,,,,,,,,,,,,,,,,,,,,,,,,
11883,1645900994.5085552,1645900994.5329971,26.0,0.0,4320.0,4469.743652,4197.94873,4132.820313,4271.282227000001,0.0,1.0,15.0,,,,0.0,4.0,1.0,4.0,4.0,4.0,75.0,,,,,,,,13.0,0.0,0.717287,0.044433999999999994,0.665771,0.200684,0.928725,-0.336919,-0.103029,-0.029026999999999997,-0.033303,-0.010759000000000001,,,,,,,,,,,,,,,,,,,,,,,,,,,,,,,,,,,0.0,0.0,1.0,0.0,512.0,0.407885,,,,,,,,,,,,,,,,,,,,,,,,,
11884,1645900994.5163689,1645900994.540812,27.0,0.0,4321.025879,4499.487305,4239.487305,4128.717772999999,4295.897461,0.0,1.0,15.0,,,,0.0,4.0,1.0,4.0,4.0,4.0,75.0,,,,,,,,,,,,,,,,,,,,,,,,,,,,,,,,,,,,,,,,,,,,,,,,,,,,,,,,,,,,,,,,,,,,,,,,,,,,,,,,,,,,
11885,1645900994.524182,1645900994.548626,28.0,0.0,4317.94873,4494.358886999999,4225.128418,4162.563965,4266.666504,0.0,1.0,15.0,,,,0.0,4.0,1.0,4.0,4.0,4.0,75.0,,,,,,,,14.0,0.0,0.717287,0.044433999999999994,0.665771,0.200684,0.945815,-0.335454,-0.099123,-0.029249,-0.033342000000000004,-0.012076,,,,,,,,,,,,,,,,,,,,,,,,,,,,,,,,,,,,,,,,,,,,,,,,,,,,,,,,,,,,,,,,,
11886,1645900994.531996,1645900994.556341,29.0,0.0,4331.794922,4461.538574,4266.153809,4169.230957,4257.436035,0.0,1.0,15.0,,,,0.0,4.0,1.0,4.0,4.0,4.0,75.0,,,,,,,,,,,,,,,,,,,,,,,,,,,,,,,,,,,,,,,,,,,,,,,,,,,,,,,,,,,,,,,,,,,,,,,,,,,,,,,,,,,,
11887,1645900994.53981,1645900994.564156,30.0,0.0,4325.641113000001,4451.794922,4293.846191,4165.128418,4278.461426,0.0,1.0,15.0,,,,0.0,4.0,1.0,4.0,4.0,4.0,75.0,,,,,,,,15.0,0.0,0.717287,0.044433999999999994,0.665771,0.200684,0.945815,-0.339361,-0.101564,-0.029352,-0.033475,-0.013261000000000002,,,,,,,,,,,,,,,,,,,,,,,,,,,,,,,,,,,0.0,0.0,1.0,0.0,512.0,0.407885,,,,,,,,,,,,,,,,,,,,,,,,,
11888,1645900994.5476232,1645900994.5719712,31.0,0.0,4304.102539,4515.897461,4282.563965,4162.563965,4265.641113000001,0.0,1.0,15.0,,,,0.0,4.0,1.0,4.0,4.0,4.0,75.0,,,,,,,,,,,,,,,,,,,,,,,,,,,,,,,,,,,,,,,,,,,,,,,,,,,,,,,,,,,,,,,,,,,,,,,,,,,,,,,,,,,,
11889,1645900994.5554368,1645900994.5797849,32.0,0.0,4312.307617,4535.384765999999,4273.846191,4147.179688,4258.461426,0.0,1.0,15.0,,,,0.0,4.0,1.0,4.0,4.0,4.0,75.0,,,,,,,,16.0,0.0,0.71734,0.044677999999999995,0.665771,0.200439,0.9472799999999999,-0.350103,-0.10888800000000001,-0.026465,-0.033545,-0.014230000000000001,,,,,,,,,,,,,,,,,,,,,,,,,,,,,,,,,,,,,,,,,,,,,,,,,,,,,,,,,,,,,,,,,
11890,1645900994.56325,1645900994.5876,33.0,0.0,4327.179688,4446.153809,4266.153809,4155.897461,4282.05127,0.0,1.0,15.0,,,,0.0,4.0,1.0,4.0,4.0,4.0,75.0,,,,,,,,,,,,,,,,,,,,,,,,,,,,,,,,,,,,,,,,,,,,,,,,,,,,,,,,,,,,,,,,,,,,,,,,,,,,,,,,,,,,
11891,1645900994.571064,1645900994.5954142,34.0,0.0,4341.538574,4424.102539,4205.128418,4189.743652,4287.692383,0.0,1.0,15.0,,,,0.0,4.0,1.0,4.0,4.0,4.0,75.0,,,,,,,,17.0,0.0,0.717113,0.044677999999999995,0.6660159999999999,0.200439,0.952651,-0.345708,-0.10351700000000001,-0.026993,-0.033365,-0.0152,,,,,,,,,,,,,,,,,,,,,,,,,,,,,,,,,,,0.0,0.0,1.0,0.0,512.0,0.407885,,,,,,,,,,,,,,,,,,,,,,,,,
11892,1645900994.578878,1645900994.6032288,35.0,0.0,4340.512695,4517.94873,4231.282227000001,4180.512695,4263.077147999999,0.0,1.0,15.0,,,,0.0,4.0,1.0,4.0,4.0,4.0,75.0,,,,,,,,,,,,,,,,,,,,,,,,,,,,,,,,,,,,,,,,,,,,,,,,,,,,,,,,,,,,,,,,,,,,,,,,,,,,,,,,,,,,
11893,1645900994.586691,1645900994.611044,36.0,0.0,4320.512695,4557.94873,4226.666504,4171.794922,4265.641113000001,0.0,1.0,15.0,,,,0.0,4.0,1.0,4.0,4.0,4.0,75.0,,,,,,,,18.0,0.0,0.717113,0.044677999999999995,0.6660159999999999,0.200439,0.937026,-0.330083,-0.10547000000000001,-0.027320999999999998,-0.033446,-0.016072,,,,,,,,,,,,,,,,,,,,,,,,,,,,,,,,,,,,,,,,,,,,,,,,,,,,,,,,,,,,,,,,,
11894,1645900994.594505,1645900994.618858,37.0,0.0,4294.871582,4488.717772999999,4149.230957,4203.077147999999,4258.461426,0.0,1.0,15.0,,,,0.0,4.0,1.0,4.0,4.0,4.0,75.0,,,,,,,,,,,,,,,,,,,,,,,,,,,,,,,,,,,,,,,,,,,,,,,,,,,,,,,,,,,,,,,,,,,,,,,,,,,,,,,,,,,,
11895,1645900994.602318,1645900994.626673,38.0,0.0,4311.282227000001,4427.179688,4118.974121,4235.897461,4267.692383,0.0,1.0,15.0,,,,0.0,4.0,1.0,4.0,4.0,4.0,75.0,,,,,,,,19.0,0.0,0.717128,0.044433999999999994,0.6660159999999999,0.200439,0.9355610000000001,-0.326665,-0.11133,-0.027763,-0.03352,-0.013684,1.0,0.0,0.0,,,,,,,,,,,,,,,,,,,,,,,,,,,,,,,,0.0,0.0,1.0,0.0,512.0,0.376239,5.1350940000000005,7.8677600000000005,3.172792,2.481077,2.499142,31.855984000000003,28.912934999999997,38.930015999999995,19.146357000000002,19.762669,16.225988,25.723259,17.148525,6.2213080000000005,6.300105,3.360239,7.093464999999999,13.959610000000001,4.408712,3.178804,8.107234,3.6855599999999997,1.890293,1.8558700000000001,2.230466
11896,1645900994.610132,1645900994.634388,39.0,0.0,4322.563965,4487.179688,4194.358886999999,4203.077147999999,4304.102539,0.0,1.0,15.0,,,,0.0,4.0,1.0,4.0,4.0,4.0,75.0,,,,,,,,,,,,,,,,,,,,,,,,,,,,,,,,,,,,,,,,,,,,,,,,,,,,,,,,,,,,,,,,,,,,,,,,,,,,,,,,,,,,
11897,1645900994.6179461,1645900994.642202,40.0,0.0,4314.358886999999,4481.538574,4251.794922,4174.871582,4309.230957,0.0,1.0,15.0,,,,0.0,4.0,1.0,4.0,4.0,4.0,75.0,,,,,,,,20.0,0.0,0.7171960000000001,0.044433999999999994,0.6660159999999999,0.200195,0.945815,-0.327153,-0.109865,-0.028208999999999998,-0.033488,-0.01461,,,,,,,,,,,,,,,,,,,,,,,,,,,,,,,,,,,,,,,,,,,,,,,,,,,,,,,,,,,,,,,,,
11898,1645900994.625759,1645900994.650017,41.0,0.0,4326.153809,4368.717772999999,4222.563965,4173.333496,4253.333496,0.0,1.0,15.0,,,,0.0,4.0,1.0,4.0,4.0,4.0,75.0,,,,,,,,,,,,,,,,,,,,,,,,,,,,,,,,,,,,,,,,,,,,,,,,,,,,,,,,,,,,,,,,,,,,,,,,,,,,,,,,,,,,
11899,1645900994.633573,1645900994.6578321,42.0,0.0,4345.641113000001,4440.0,4204.615234000001,4168.205078,4242.05127,0.0,1.0,15.0,,,,0.0,4.0,1.0,4.0,4.0,4.0,75.0,,,,,,,,21.0,0.0,0.7171960000000001,0.044433999999999994,0.6660159999999999,0.200195,0.9546040000000001,-0.337407,-0.098634,-0.028513,-0.033507999999999996,-0.012368,,,,,,,,,,,,,,,,,,,,,,,,,,,,,,,,,,,0.0,0.0,1.0,0.0,512.0,0.376239,,,,,,,,,,,,,,,,,,,,,,,,,
11900,1645900994.641386,1645900994.665646,43.0,0.0,4318.461426,4543.589844,4210.769043,4168.717772999999,4261.025879,0.0,1.0,15.0,,,,0.0,4.0,1.0,4.0,4.0,4.0,75.0,,,,,,,,,,,,,,,,,,,,,,,,,,,,,,,,,,,,,,,,,,,,,,,,,,,,,,,,,,,,,,,,,,,,,,,,,,,,,,,,,,,,
11901,1645900994.6492,1645900994.673461,44.0,0.0,4324.102539,4533.846191,4229.230957,4184.102539,4253.333496,0.0,1.0,15.0,,,,0.0,4.0,1.0,4.0,4.0,4.0,75.0,,,,,,,,22.0,0.0,0.716901,0.044433999999999994,0.6662600000000001,0.200439,0.937514,-0.327642,-0.11621300000000001,-0.028885,-0.03338,-0.013377000000000002,,,,,,,,,,,,,,,,,,,,,,,,,,,,,,,,,,,,,,,,,,,,,,,,,,,,,,,,,,,,,,,,,
11902,1645900994.6570141,1645900994.681276,45.0,0.0,4352.307617,4566.666504,4233.846191,4169.743652,4264.102539,0.0,1.0,15.0,,,,0.0,4.0,1.0,4.0,4.0,4.0,75.0,,,,,,,,,,,,,,,,,,,,,,,,,,,,,,,,,,,,,,,,,,,,,,,,,,,,,,,,,,,,,,,,,,,,,,,,,,,,,,,,,,,,
11903,1645900994.6648269,1645900994.68909,46.0,0.0,4313.846191,4552.307617,4261.538574,4144.102539,4295.384765999999,0.0,1.0,15.0,,,,0.0,4.0,1.0,4.0,4.0,4.0,75.0,,,,,,,,23.0,0.0,0.716901,0.044433999999999994,0.6662600000000001,0.200439,0.948257,-0.340337,-0.112795,-0.029169999999999998,-0.033313999999999996,-0.011258,,,,,,,,,,,,,,,,,,,,,,,,,,,,,,,,,,,0.0,0.0,1.0,0.0,512.0,0.376239,,,,,,,,,,,,,,,,,,,,,,,,,
11904,1645900994.672641,1645900994.6969051,47.0,0.0,4283.589844,4425.641113000001,4234.871582,4148.205078,4291.282227000001,0.0,1.0,15.0,,,,0.0,4.0,1.0,4.0,4.0,4.0,75.0,,,,,,,,,,,,,,,,,,,,,,,,,,,,,,,,,,,,,,,,,,,,,,,,,,,,,,,,,,,,,,,,,,,,,,,,,,,,,,,,,,,,
11905,1645900994.680454,1645900994.70462,48.0,0.0,4315.384765999999,4418.974121,4216.410156,4174.358886999999,4277.436035,0.0,1.0,15.0,,,,0.0,4.0,1.0,4.0,4.0,4.0,75.0,,,,,,,,24.0,0.0,0.716901,0.044433999999999994,0.6662600000000001,0.200439,0.951675,-0.336431,-0.10547000000000001,-0.029427,-0.033303,-0.012525,,,,,,,,,,,,,,,,,,,,,,,,,,,,,,,,,,,,,,,,,,,,,,,,,,,,,,,,,,,,,,,,,
11906,1645900994.688268,1645900994.712434,49.0,0.0,4330.256348,4478.461426,4211.282227000001,4190.256348,4302.05127,0.0,1.0,15.0,,,,0.0,4.0,1.0,4.0,4.0,4.0,75.0,,,,,,,,,,,,,,,,,,,,,,,,,,,,,,,,,,,,,,,,,,,,,,,,,,,,,,,,,,,,,,,,,,,,,,,,,,,,,,,,,,,,
11907,1645900994.696082,1645900994.720149,50.0,0.0,4298.461426,4417.94873,4256.922852000001,4184.615234000001,4302.563965,0.0,1.0,15.0,,,,0.0,4.0,1.0,4.0,4.0,4.0,75.0,,,,,,,,25.0,0.0,0.7168859999999999,0.044677999999999995,0.6662600000000001,0.200439,0.948257,-0.34229,-0.111818,-0.029608999999999996,-0.033293,-0.01054,,,,,,,,,,,,,,,,,,,,,,,,,,,,,,,,,,,0.0,0.0,1.0,0.0,512.0,0.376239,,,,,,,,,,,,,,,,,,,,,,,,,
11908,1645900994.7038949,1645900994.7279642,51.0,0.0,4314.871582,4426.666504,4255.384765999999,4164.102539,4280.0,0.0,1.0,15.0,,,,0.0,4.0,1.0,4.0,4.0,4.0,75.0,,,,,,,,,,,,,,,,,,,,,,,,,,,,,,,,,,,,,,,,,,,,,,,,,,,,,,,,,,,,,,,,,,,,,,,,,,,,,,,,,,,,
11909,1645900994.711709,1645900994.7357779,52.0,0.0,4349.743652,4548.717772999999,4252.307617,4124.615234000001,4293.846191,0.0,1.0,15.0,,,,0.0,4.0,1.0,4.0,4.0,4.0,75.0,,,,,,,,26.0,0.0,0.7168859999999999,0.044677999999999995,0.6662600000000001,0.200439,0.9438620000000001,-0.335454,-0.10888800000000001,-0.029724,-0.033382,-0.011879,,,,,,,,,,,,,,,,,,,,,,,,,,,,,,,,,,,,,,,,,,,,,,,,,,,,,,,,,,,,,,,,,
11910,1645900994.719522,1645900994.743593,53.0,0.0,4355.384765999999,4549.230957,4277.436035,4124.102539,4306.153809,0.0,1.0,15.0,,,,0.0,4.0,1.0,4.0,4.0,4.0,75.0,,,,,,,,,,,,,,,,,,,,,,,,,,,,,,,,,,,,,,,,,,,,,,,,,,,,,,,,,,,,,,,,,,,,,,,,,,,,,,,,,,,,
11911,1645900994.727336,1645900994.751408,54.0,0.0,4361.025879,4452.307617,4269.743652,4148.205078,4261.025879,0.0,1.0,15.0,,,,0.0,4.0,1.0,4.0,4.0,4.0,75.0,,,,,,,,27.0,0.0,0.7168859999999999,0.044677999999999995,0.6662600000000001,0.200439,0.94435,-0.326177,-0.101076,-0.029925999999999998,-0.033364,-0.013084,1.0,0.0,0.0,,,,,,,,,,,,,,,,,,,,,,,,,,,,,,,,0.0,0.0,1.0,0.0,512.0,0.507469,4.285228,6.494285,3.427103,2.281552,2.388953,26.773928,28.305656,33.411034,17.615171,20.159464,20.177360999999998,32.812183000000005,13.973970000000001,4.971807,7.097428,3.42065,6.157753,13.826685000000001,4.160948,2.9626,7.813797999999999,3.0936,1.6317549999999998,1.95114,2.162154
11912,1645900994.73515,1645900994.759222,55.0,0.0,4370.769043,4469.230957,4211.794922,4160.512695,4265.128418,0.0,1.0,15.0,,,,0.0,4.0,1.0,4.0,4.0,4.0,75.0,,,,,,,,,,,,,,,,,,,,,,,,,,,,,,,,,,,,,,,,,,,,,,,,,,,,,,,,,,,,,,,,,,,,,,,,,,,,,,,,,,,,
11913,1645900994.742963,1645900994.767037,56.0,0.0,4325.128418,4483.077147999999,4190.256348,4176.922852000001,4274.358886999999,0.0,1.0,15.0,,,,0.0,4.0,1.0,4.0,4.0,4.0,75.0,,,,,,,,28.0,0.0,0.716901,0.044433999999999994,0.6662600000000001,0.200439,0.9438620000000001,-0.32910700000000004,-0.10009900000000001,-0.030057999999999998,-0.033397,-0.014119,,,,,,,,,,,,,,,,,,,,,,,,,,,,,,,,,,,,,,,,,,,,,,,,,,,,,,,,,,,,,,,,,
11914,1645900994.750777,1645900994.774852,57.0,0.0,4332.820313,4374.871582,4166.153809,4197.436035,4266.666504,0.0,1.0,15.0,,,,0.0,4.0,1.0,4.0,4.0,4.0,75.0,,,,,,,,,,,,,,,,,,,,,,,,,,,,,,,,,,,,,,,,,,,,,,,,,,,,,,,,,,,,,,,,,,,,,,,,,,,,,,,,,,,,
11915,1645900994.75859,1645900994.782666,58.0,0.0,4370.256348,4378.461426,4203.077147999999,4162.563965,4296.922852000001,0.0,1.0,15.0,,,,0.0,4.0,1.0,4.0,4.0,4.0,75.0,,,,,,,,29.0,0.0,0.7166060000000001,0.044433999999999994,0.666504,0.200684,0.9428850000000001,-0.340337,-0.107912,-0.027101,-0.033329000000000004,-0.014953,,,,,,,,,,,,,,,,,,,,,,,,,,,,,,,,,,,0.0,0.0,1.0,0.0,512.0,0.507469,,,,,,,,,,,,,,,,,,,,,,,,,
11916,1645900994.766404,1645900994.790381,59.0,0.0,4316.922852000001,4481.025879,4308.205078,4134.871582,4287.692383,0.0,1.0,15.0,,,,0.0,4.0,1.0,4.0,4.0,4.0,75.0,,,,,,,,,,,,,,,,,,,,,,,,,,,,,,,,,,,,,,,,,,,,,,,,,,,,,,,,,,,,,,,,,,,,,,,,,,,,,,,,,,,,
11917,1645900994.774217,1645900994.798196,60.0,0.0,4291.794922,4438.461426,4238.461426,4132.820313,4237.94873,0.0,1.0,15.0,,,,0.0,4.0,1.0,4.0,4.0,4.0,75.0,,,,,,,,30.0,0.0,0.7166060000000001,0.044433999999999994,0.666504,0.200684,0.9438620000000001,-0.32910700000000004,-0.105959,-0.027565,-0.033365,-0.015753,,,,,,,,,,,,,,,,,,,,,,,,,,,,,,,,,,,,,,,,,,,,,,,,,,,,,,,,,,,,,,,,,
11918,1645900994.782031,1645900994.80601,61.0,0.0,4360.0,4370.769043,4206.666504,4126.153809,4288.717772999999,0.0,1.0,15.0,,,,0.0,4.0,1.0,4.0,4.0,4.0,75.0,,,,,,,,,,,,,,,,,,,,,,,,,,,,,,,,,,,,,,,,,,,,,,,,,,,,,,,,,,,,,,,,,,,,,,,,,,,,,,,,,,,,
11919,1645900994.789845,1645900994.813825,62.0,0.0,4362.563965,4445.641113000001,4285.641113000001,4136.922852000001,4337.94873,0.0,1.0,15.0,,,,0.0,4.0,1.0,4.0,4.0,4.0,75.0,,,,,,,,31.0,0.0,0.7166060000000001,0.044433999999999994,0.666504,0.200684,0.9423969999999999,-0.327642,-0.112795,-0.027933999999999997,-0.033250999999999996,-0.016521,,,,,,,,,,,,,,,,,,,,,,,,,,,,,,,,,,,0.0,0.0,1.0,0.0,512.0,0.507469,,,,,,,,,,,,,,,,,,,,,,,,,
11920,1645900994.797658,1645900994.82164,63.0,0.0,4307.692383,4535.384765999999,4295.384765999999,4149.230957,4282.563965,0.0,1.0,15.0,,,,0.0,4.0,1.0,4.0,4.0,4.0,75.0,,,,,,,,,,,,,,,,,,,,,,,,,,,,,,,,,,,,,,,,,,,,,,,,,,,,,,,,,,,,,,,,,,,,,,,,,,,,,,,,,,,,
11921,1645900994.8054721,1645900994.829454,64.0,0.0,4332.307617,4529.743652,4243.077147999999,4137.436035,4261.538574,450.0,1.0,15.0,,,,0.0,4.0,1.0,4.0,4.0,4.0,75.0,,,,,,,,32.0,0.0,0.7166060000000001,0.044433999999999994,0.666504,0.200684,0.9428850000000001,-0.340337,-0.107912,-0.028314,-0.033295,-0.014137,,,,,,,,,,,,,,,,,,,,,,,,,,,,,,,,,,,,,,,,,,,,,,,,,,,,,,,,,,,,,,,,,
11922,1645900994.8132849,1645900994.8372688,65.0,0.0,4367.179688,4478.461426,4290.769043,4116.922852000001,4290.769043,450.0,1.0,15.0,,,,0.0,4.0,1.0,4.0,4.0,4.0,75.0,,,,,,,,,,,,,,,,,,,,,,,,,,,,,,,,,,,,,,,,,,,,,,,,,,,,,,,,,,,,,,,,,,,,,,,,,,,,,,,,,,,,
11923,1645900994.821099,1645900994.845084,66.0,0.0,4331.794922,4448.717772999999,4310.256348,4127.179688,4282.563965,16118.0,1.0,15.0,,,,0.0,4.0,1.0,4.0,4.0,4.0,75.0,,,,,,,,33.0,0.0,0.7166060000000001,0.044433999999999994,0.666504,0.200684,0.9423969999999999,-0.327642,-0.112795,-0.028607999999999998,-0.033188,-0.015066999999999999,,,,,,,,,,,,,,,,,,,,,,,,,,,,,,,,,,,0.0,0.0,1.0,0.0,512.0,0.507469,,,,,,,,,,,,,,,,,,,,,,,,,
11924,1645900994.828913,1645900994.8528981,67.0,0.0,4296.922852000001,4425.128418,4263.077147999999,4161.025879,4255.897461,450.0,1.0,15.0,,,,0.0,4.0,1.0,4.0,4.0,4.0,75.0,,,,,,,,,,,,,,,,,,,,,,,,,,,,,,,,,,,,,,,,,,,,,,,,,,,,,,,,,,,,,,,,,,,,,,,,,,,,,,,,,,,,
11925,1645900994.836726,1645900994.860613,68.0,0.0,4321.538574,4445.641113000001,4201.538574,4173.846191,4279.487305,0.0,1.0,15.0,,,,0.0,4.0,0.0,1.0,4.0,4.0,41.666668,,,,,,,,34.0,0.0,0.716538,0.044433999999999994,0.666504,0.200928,0.933608,-0.333013,-0.10547000000000001,-0.028872000000000002,-0.033239,-0.015855,,,,,,,,,,,,,,,,,,,,,,,,,,,,,,,,,,,,,,,,,,,,,,,,,,,,,,,,,,,,,,,,,
11926,1645900994.84454,1645900994.868428,69.0,0.0,4319.487305,4535.897461,4247.692383,4145.128418,4295.897461,450.0,1.0,15.0,,,,0.0,4.0,0.0,1.0,4.0,4.0,41.666668,,,,,,,,,,,,,,,,,,,,,,,,,,,,,,,,,,,,,,,,,,,,,,,,,,,,,,,,,,,,,,,,,,,,,,,,,,,,,,,,,,,,
11927,1645900994.8523529,1645900994.876242,70.0,0.0,4313.846191,4531.794922,4246.666504,4133.846191,4288.717772999999,129.0,1.0,15.0,,,,0.0,4.0,0.0,1.0,4.0,4.0,41.666668,,,,,,,,35.0,0.0,0.7165229999999999,0.044677999999999995,0.666504,0.200928,0.948257,-0.335454,-0.109865,-0.029110000000000004,-0.033283999999999994,-0.013488,1.0,0.0,0.0,,,,,,,,,,,,,,,,,,,,,,,,,,,,,,,,0.0,0.0,1.0,0.0,512.0,0.505937,3.597574,5.313175,3.7468480000000004,2.21831,2.293715,21.502626,26.125841,29.810623,16.087519,20.477345,26.669265999999997,39.959076,11.49342,4.0996440000000005,8.075126,3.592111,5.119642,13.025775,4.087944,2.9705150000000002,6.919466000000001,2.5304279999999997,1.757175,2.09732,2.0800419999999997
11928,1645900994.860167,1645900994.884057,71.0,0.0,4336.922852000001,4455.897461,4178.461426,4132.307617,4288.717772999999,450.0,1.0,15.0,,,,0.0,4.0,0.0,1.0,4.0,4.0,41.666668,,,,,,,,,,,,,,,,,,,,,,,,,,,,,,,,,,,,,,,,,,,,,,,,,,,,,,,,,,,,,,,,,,,,,,,,,,,,,,,,,,,,
11929,1645900994.867981,1645900994.8918722,72.0,0.0,4343.077147999999,4442.05127,4223.077147999999,4149.230957,4305.641113000001,450.0,1.0,15.0,,,,0.0,4.0,0.0,1.0,4.0,4.0,41.666668,,,,,,,,36.0,0.0,0.7165229999999999,0.044677999999999995,0.666504,0.200928,0.949722,-0.335943,-0.096193,-0.029275,-0.033276,-0.011261,,,,,,,,,,,,,,,,,,,,,,,,,,,,,,,,,,,,,,,,,,,,,,,,,,,,,,,,,,,,,,,,,
11930,1645900994.875794,1645900994.8996859,73.0,0.0,4325.128418,4427.692383,4260.0,4183.589844,4283.589844,16079.0,1.0,15.0,,,,0.0,4.0,0.0,1.0,4.0,4.0,41.666668,,,,,,,,,,,,,,,,,,,,,,,,,,,,,,,,,,,,,,,,,,,,,,,,,,,,,,,,,,,,,,,,,,,,,,,,,,,,,,,,,,,,
11931,1645900994.883608,1645900994.907501,74.0,0.0,4345.641113000001,4463.077147999999,4204.615234000001,4190.769043,4272.307617,450.0,1.0,15.0,,,,0.0,4.0,0.0,1.0,4.0,4.0,41.666668,,,,,,,,37.0,0.0,0.716749,0.044677999999999995,0.6662600000000001,0.200928,0.936049,-0.333989,-0.11425999999999999,-0.029473000000000003,-0.03322,-0.012478,,,,,,,,,,,,,,,,,,,,,,,,,,,,,,,,,,,0.0,0.0,1.0,0.0,512.0,0.505937,,,,,,,,,,,,,,,,,,,,,,,,,
11932,1645900994.891421,1645900994.9153152,75.0,0.0,4333.846191,4534.358886999999,4215.384765999999,4158.461426,4287.179688,16119.0,1.0,15.0,,,,0.0,4.0,0.0,1.0,4.0,4.0,41.666668,,,,,,,,,,,,,,,,,,,,,,,,,,,,,,,,,,,,,,,,,,,,,,,,,,,,,,,,,,,,,,,,,,,,,,,,,,,,,,,,,,,,
11933,1645900994.899235,1645900994.92313,76.0,0.0,4298.974121,4517.94873,4266.666504,4150.256348,4275.384765999999,450.0,1.0,15.0,,,,0.0,4.0,0.0,1.0,4.0,4.0,41.666668,,,,,,,,38.0,0.0,0.716749,0.044677999999999995,0.6662600000000001,0.200928,0.9438620000000001,-0.336919,-0.093751,-0.02965,-0.033169,-0.010645,,,,,,,,,,,,,,,,,,,,,,,,,,,,,,,,,,,,,,,,,,,,,,,,,,,,,,,,,,,,,,,,,
11934,1645900994.907049,1645900994.930845,77.0,0.0,4304.102539,4456.410156,4221.025879,4145.128418,4254.358886999999,450.0,1.0,15.0,,,,0.0,4.0,0.0,1.0,4.0,4.0,41.666668,,,,,,,,,,,,,,,,,,,,,,,,,,,,,,,,,,,,,,,,,,,,,,,,,,,,,,,,,,,,,,,,,,,,,,,,,,,,,,,,,,,,
11935,1645900994.914862,1645900994.938659,78.0,0.0,4309.230957,4460.0,4198.461426,4140.512695,4265.128418,450.0,1.0,15.0,,,,0.0,4.0,0.0,1.0,4.0,4.0,41.666668,,,,,,,,39.0,0.0,0.716749,0.044677999999999995,0.6662600000000001,0.200928,0.936049,-0.34766199999999997,-0.11230599999999999,-0.026733999999999997,-0.033173,-0.011875,,,,,,,,,,,,,,,,,,,,,,,,,,,,,,,,,,,0.0,0.0,1.0,0.0,512.0,0.505937,,,,,,,,,,,,,,,,,,,,,,,,,
11936,1645900994.922676,1645900994.946474,79.0,0.0,4310.769043,4478.974121,4188.717772999999,4154.358886999999,4283.077147999999,16119.0,1.0,15.0,,,,0.0,4.0,0.0,1.0,4.0,4.0,41.666668,,,,,,,,,,,,,,,,,,,,,,,,,,,,,,,,,,,,,,,,,,,,,,,,,,,,,,,,,,,,,,,,,,,,,,,,,,,,,,,,,,,,
11937,1645900994.930489,1645900994.954289,80.0,0.0,4323.077147999999,4466.666504,4253.333496,4166.153809,4287.179688,450.0,1.0,15.0,,,,0.0,4.0,0.0,1.0,4.0,4.0,41.666668,,,,,,,,40.0,0.0,0.716734,0.044922000000000004,0.6662600000000001,0.200928,0.9511860000000001,-0.340337,-0.10693499999999999,-0.027381,-0.033176,-0.009857,,,,,,,,,,,,,,,,,,,,,,,,,,,,,,,,,,,,,,,,,,,,,,,,,,,,,,,,,,,,,,,,,
11938,1645900994.938303,1645900994.962103,81.0,0.0,4336.922852000001,4484.102539,4303.589844,4150.769043,4296.410156,450.0,1.0,15.0,,,,0.0,4.0,0.0,1.0,4.0,4.0,41.666668,,,,,,,,,,,,,,,,,,,,,,,,,,,,,,,,,,,,,,,,,,,,,,,,,,,,,,,,,,,,,,,,,,,,,,,,,,,,,,,,,,,,
11939,1645900994.946117,1645900994.969918,82.0,0.0,4332.820313,4515.384765999999,4310.769043,4123.077147999999,4297.94873,450.0,1.0,15.0,,,,0.0,4.0,0.0,1.0,4.0,4.0,41.666668,,,,,,,,41.0,0.0,0.7169760000000001,0.044677999999999995,0.6660159999999999,0.200928,0.945815,-0.33984899999999996,-0.098146,-0.027524,-0.033081,-0.011313,,,,,,,,,,,,,,,,,,,,,,,,,,,,,,,,,,,0.0,0.0,1.0,0.0,512.0,0.505937,,,,,,,,,,,,,,,,,,,,,,,,,
11940,1645900994.9539301,1645900994.977733,83.0,0.0,4328.205078,4494.358886999999,4284.615234000001,4149.230957,4276.410156,16119.0,1.0,15.0,,,,0.0,4.0,0.0,1.0,4.0,4.0,41.666668,,,,,,,,,,,,,,,,,,,,,,,,,,,,,,,,,,,,,,,,,,,,,,,,,,,,,,,,,,,,,,,,,,,,,,,,,,,,,,,,,,,,
11941,1645900994.9617438,1645900994.985547,84.0,0.0,4342.563965,4434.358886999999,4257.436035,4177.94873,4265.641113000001,450.0,1.0,15.0,,,,0.0,4.0,0.0,1.0,4.0,4.0,41.666668,,,,,,,,42.0,0.0,0.7170449999999999,0.044677999999999995,0.6660159999999999,0.200684,0.9331200000000001,-0.336431,-0.11523599999999999,-0.027897,-0.033093,-0.009303,,,,,,,,,,,,,,,,,,,,,,,,,,,,,,,,,,,,,,,,,,,,,,,,,,,,,,,,,,,,,,,,,
11942,1645900994.969557,1645900994.993362,85.0,0.0,4362.05127,4413.333496,4213.846191,4186.666504,4300.0,450.0,1.0,15.0,,,,0.0,4.0,0.0,1.0,4.0,4.0,41.666668,,,,,,,,,,,,,,,,,,,,,,,,,,,,,,,,,,,,,,,,,,,,,,,,,,,,,,,,,,,,,,,,,,,,,,,,,,,,,,,,,,,,
11943,1645900994.977371,1645900995.0011768,86.0,0.0,4348.717772999999,4447.179688,4214.358886999999,4206.153809,4270.256348,450.0,1.0,15.0,,,,0.0,4.0,0.0,1.0,4.0,4.0,41.666668,0.972656,25.0,3.0,0.0,0.0,3.0,4.0,43.0,0.0,0.7170449999999999,0.044677999999999995,0.6660159999999999,0.200684,0.9521629999999999,-0.338872,-0.111818,-0.028183,-0.033056,-0.010814,1.0,0.0,0.0,,,,,,,,,,,,,,,,,,,,,,,,,,,,,,,,0.0,0.0,1.0,0.0,512.0,0.500736,3.111576,4.314973,3.9919010000000004,2.3079110000000003,2.228627,16.975481,22.754814,28.962390999999997,14.841832,20.756887,34.551559000000005,46.039192,9.813880000000001,3.740785,9.071431,3.8844480000000003,4.1086529999999994,11.733259,4.2187269999999994,3.167365,5.645455,2.1237630000000003,2.020665,2.301294,2.0272259999999998
11944,1645900994.985185,1645900995.008891,87.0,0.0,4341.538574,4499.487305,4191.282227000001,4212.307617,4244.615234000001,16119.0,1.0,15.0,,,,0.0,4.0,0.0,1.0,4.0,4.0,41.666668,,,,,,,,,,,,,,,,,,,,,,,,,,,,,,,,,,,,,,,,,,,,,,,,,,,,,,,,,,,,,,,,,,,,,,,,,,,,,,,,,,,,
11945,1645900994.9929981,1645900995.016706,88.0,0.0,4317.436035,4517.94873,4194.358886999999,4157.436035,4287.692383,450.0,1.0,15.0,,,,0.0,4.0,0.0,1.0,4.0,4.0,41.666668,,,,,,,,44.0,0.0,0.7170449999999999,0.044677999999999995,0.6660159999999999,0.200684,0.9433739999999999,-0.343267,-0.10693499999999999,-0.028539,-0.033022,-0.008951,,,,,,,,,,,,,,,,,,,,,,,,,,,,,,,,,,,,,,,,,,,,,,,,,,,,,,,,,,,,,,,,,
11946,1645900995.0008118,1645900995.024521,89.0,0.0,4313.333496,4512.307617,4238.461426,4130.769043,4311.794922,450.0,1.0,15.0,,,,0.0,4.0,0.0,1.0,4.0,4.0,41.666668,,,,,,,,,,,,,,,,,,,,,,,,,,,,,,,,,,,,,,,,,,,,,,,,,,,,,,,,,,,,,,,,,,,,,,,,,,,,,,,,,,,,
11947,1645900995.008625,1645900995.032235,90.0,0.0,4351.282227000001,4535.897461,4221.538574,4143.077147999999,4287.692383,450.0,1.0,15.0,,,,0.0,4.0,0.0,1.0,4.0,4.0,41.666668,,,,,,,,45.0,0.0,0.7170449999999999,0.044677999999999995,0.6660159999999999,0.200684,0.94435,-0.340337,-0.104005,-0.028810000000000002,-0.033137,-0.010351,,,,,,,,,,,,,,,,,,,,,,,,,,,,,,,,,,,0.0,0.0,1.0,0.0,512.0,0.500736,,,,,,,,,,,,,,,,,,,,,,,,,
11948,1645900995.016439,1645900995.03995,91.0,0.0,4360.0,4550.769043,4232.307617,4141.538574,4285.641113000001,16119.0,1.0,15.0,,,,0.0,4.0,0.0,1.0,4.0,4.0,41.666668,,,,,,,,,,,,,,,,,,,,,,,,,,,,,,,,,,,,,,,,,,,,,,,,,,,,,,,,,,,,,,,,,,,,,,,,,,,,,,,,,,,,
11949,1645900995.024253,1645900995.047765,92.0,0.0,4328.205078,4483.589844,4226.666504,4137.436035,4271.794922,450.0,1.0,15.0,,,,0.0,4.0,0.0,1.0,4.0,4.0,41.666668,,,,,,,,46.0,0.0,0.7169760000000001,0.044677999999999995,0.6660159999999999,0.200928,0.948257,-0.339361,-0.120119,-0.029102999999999997,-0.033193,-0.008584,,,,,,,,,,,,,,,,,,,,,,,,,,,,,,,,,,,,,,,,,,,,,,,,,,,,,,,,,,,,,,,,,
11950,1645900995.032066,1645900995.055579,93.0,0.0,4336.410156,4410.769043,4199.487305,4144.102539,4254.358886999999,450.0,1.0,15.0,,,,0.0,4.0,0.0,1.0,4.0,4.0,41.666668,,,,,,,,,,,,,,,,,,,,,,,,,,,,,,,,,,,,,,,,,,,,,,,,,,,,,,,,,,,,,,,,,,,,,,,,,,,,,,,,,,,,
11951,1645900995.03988,1645900995.0633938,94.0,0.0,4346.153809,4413.333496,4220.0,4147.179688,4274.871582,450.0,1.0,15.0,,,,0.0,4.0,0.0,1.0,4.0,4.0,41.666668,,,,,,,,47.0,0.0,0.7169760000000001,0.044677999999999995,0.6660159999999999,0.200928,0.9438620000000001,-0.338384,-0.11133,-0.026241000000000004,-0.033243,-0.010020000000000001,,,,,,,,,,,,,,,,,,,,,,,,,,,,,,,,,,,0.0,0.0,1.0,0.0,512.0,0.500736,,,,,,,,,,,,,,,,,,,,,,,,,
11952,1645900995.047693,1645900995.071209,95.0,0.0,4324.102539,4515.897461,4314.871582,4152.307617,4276.922852000001,16119.0,1.0,15.0,,,,0.0,4.0,0.0,1.0,4.0,4.0,41.666668,,,,,,,,,,,,,,,,,,,,,,,,,,,,,,,,,,,,,,,,,,,,,,,,,,,,,,,,,,,,,,,,,,,,,,,,,,,,,,,,,,,,
11953,1645900995.055507,1645900995.0790231,96.0,0.0,4340.512695,4561.025879,4291.282227000001,4160.512695,4260.0,450.0,1.0,15.0,,,,0.0,4.0,0.0,1.0,4.0,4.0,41.666668,,,,,,,,48.0,0.0,0.716908,0.044677999999999995,0.6660159999999999,0.201172,0.9404440000000001,-0.340337,-0.099123,-0.026693,-0.03319,-0.008334999999999999,,,,,,,,,,,,,,,,,,,,,,,,,,,,,,,,,,,,,,,,,,,,,,,,,,,,,,,,,,,,,,,,,
11954,1645900995.063321,1645900995.086838,97.0,0.0,4354.358886999999,4456.922852000001,4236.410156,4161.025879,4255.384765999999,450.0,1.0,15.0,,,,0.0,4.0,0.0,1.0,4.0,4.0,41.666668,,,,,,,,,,,,,,,,,,,,,,,,,,,,,,,,,,,,,,,,,,,,,,,,,,,,,,,,,,,,,,,,,,,,,,,,,,,,,,,,,,,,
11955,1645900995.071134,1645900995.094553,98.0,0.0,4330.256348,4463.589844,4253.846191,4165.641113000001,4260.512695,450.0,1.0,15.0,,,,0.0,4.0,0.0,1.0,4.0,4.0,41.666668,,,,,,,,49.0,0.0,0.716908,0.044677999999999995,0.6660159999999999,0.201172,0.9506979999999999,-0.335454,-0.10693499999999999,-0.027247000000000004,-0.03324,-0.009943,,,,,,,,,,,,,,,,,,,,,,,,,,,,,,,,,,,0.0,0.0,1.0,0.0,512.0,0.500736,,,,,,,,,,,,,,,,,,,,,,,,,
11956,1645900995.078948,1645900995.102367,99.0,0.0,4318.974121,4595.897461,4286.153809,4152.307617,4250.769043,16119.0,1.0,15.0,,,,0.0,4.0,0.0,1.0,4.0,4.0,41.666668,,,,,,,,,,,,,,,,,,,,,,,,,,,,,,,,,,,,,,,,,,,,,,,,,,,,,,,,,,,,,,,,,,,,,,,,,,,,,,,,,,,,
11957,1645900995.086761,1645900995.110182,100.0,0.0,4352.307617,4576.410156,4206.153809,4132.307617,4266.666504,450.0,1.0,15.0,,,,0.0,4.0,0.0,1.0,4.0,4.0,41.666668,,,,,,,,50.0,0.0,0.716908,0.044677999999999995,0.6660159999999999,0.201172,0.949722,-0.337407,-0.107912,-0.027647,-0.033285,-0.011193999999999999,,,,,,,,,,,,,,,,,,,,,,,,,,,,,,,,,,,,,,,,,,,,,,,,,,,,,,,,,,,,,,,,,
11958,1645900995.094575,1645900995.1179972,101.0,0.0,4347.179688,4514.871582,4184.615234000001,4135.384765999999,4283.589844,450.0,1.0,15.0,,,,0.0,4.0,0.0,1.0,4.0,4.0,41.666668,,,,,,,,,,,,,,,,,,,,,,,,,,,,,,,,,,,,,,,,,,,,,,,,,,,,,,,,,,,,,,,,,,,,,,,,,,,,,,,,,,,,
